BEGIN IONS
TITLE=Spectrum 1DFPIANGER_01.csv DRIFT_TIME=16.4366 16.0668 16.1296 15.9522 16.1348 16.3723 16.0212 16.3292 16.3657 16.299 16.1896 16.1564 16.1464 16.1072 16.4333 16.1523 16.3531 16.1059 16.0457 16.4886 16.1854 16.2811 16.2977 16.2125 17.9579 16.0404 16.0131 16.5339 16.2991 16.7011 16.0351 16.3732 16.2228 16.5265 16.1835 16.614 16.2637 16.5027 16.2424 16.5538 16.9455 16.5128 16.4427 16.504 16.5172 16.4946 16.6506 16.2569 16.4465 16.3097 16.2334 16.4799 16.4185 16.6821 16.5521 16.7076 16.8373 16.5955 16.9013 16.6262 16.8732 16.5744 16.4824 16.6092 16.7425 16.2777 16.6438 16.6755 17.2056 16.6546 16.8199 18.5099 16.7381 19.3351 16.7173 16.7993 17.8106 16.8006 17.6295 17.0892 17.4887 16.8521 16.8362 16.8052 17.021 17.0958 17.1398 16.8267 16.7905 18.158 18.2876 17.9338 17.8886 18.6295 17.5159 17.1394 17.8614 17.0721 17.1975 18.6513 17.5717 18.1964 17.5603 17.5171 17.2569 19.0292 17.2014 18.0792 18.1215 18.3299 18.4372 18.6563 17.9348 18.4628 18.5383 18.6872 17.5982 18.5492 17.2752 17.7869 17.382 17.4934 17.2737 17.5105 17.9576 18.5166 19.4338 18.8512 18.7492 18.8277 18.7924 18.7414 18.8859 18.4407 18.2679 18.2221 18.2693 19.0391 18.0341 18.6576 19.1025 18.3347 18.8041 19.0551 18.5764 18.6705 20.7183 19.1509 20.8341 19.4879 19.69 19.6526 17.9569 20.7519 18.9054 19.0028 18.8734 18.9546 18.8686 18.8662 19.9725 20.0648 19.2964 24.4505 25.3642 20.5004 20.8615 18.6702 18.7492 19.148 19.6988 19.6983 20.0398 19.107 19.6615 19.8557 19.297 19.4946 19.279 19.3982 19.5006 22.3458 22.1117 19.8251 19.7123 24.1029 20.7182 19.0377 20.5497 26.9279 21.364 22.4665 20.4716 19.4691 20.0814 19.3812 19.4312 19.6168 19.7082 19.8789 24.8777 21.8069 21.3988 21.4441 21.3296 24.3832 30.0549 22.7771 23.2063 29.8744 22.2643 24.2363 30.4601 22.3411 23.5182 28.1852 23.7466 27.4421 22.5334 22.7172 24.0853 24.1619 27.5235 23.9838 24.2862 31.378601 23.1151 32.1553 27.4747 22.5149 26.5264 24.8378 25.366 28.5065 29.1278 29.0623 30.9679 30.828 32.0891 32.5273 33.6049 26.989 26.4873 31.624802 26.439 26.5433 26.0902 26.4414 35.3372 34.6036 25.6404 33.5019 32.9412 27.1773 27.1363 27.1788 27.1938 26.8573 32.2196 32.2868 36.5945 30.3461 30.138 29.5991 39.4733 39.2974 42.3266 42.0537 40.9887 37.5353 34.772 38.0728 40.8703 39.3237 39.7386 34.1466 38.606 41.299 40.9521 40.9311 48.9659 47.0242 47.1484 44.5156 51.64 69.2718 78.3511 45.9292 50.1078 52.8794 46.9565 46.7062 52.0096 62.1432 46.6802 62.7853 63.392303 46.2169 46.2961 46.3898 46.6357 48.2511 39.4897 51.3482 51.6041 51.4097 51.7659 49.9901 48.5227 43.6891 59.4841 52.6559 59.7124 59.8349 59.8188 53.8634 54.8836 62.319 61.5918 61.8489 62.9135 63.858 65.1735 65.206 64.2994 70.6629 69.8454 70.053 72.2694 69.328 68.4604 75.3138 78.4957 80.6284 83.9872 84.7375 86.6097 82.2471 78.174 77.831 77.6431 76.9445 76.7598 92.0995 102.3397 102.1087 104.0015 
PEPMASS=509.754
CHARGE=2+
102.9889 194
104.0928 1945
110.0932 3779
111.0975 700
112.1112 174
114.9766 479
116.0964 314
116.9736 489
117.012 765
118.9716 595
120.1056 4029
121.1096 469
122.1067 4600
123.1111 279
125.0178 171
129.1298 1009
129.9915 1006
130.0924 1695
131.0922 243
132.9852 161
134.9894 180
136.1044 1062
136.9822 187
137.1106 225
141.053 141
141.4902 429
144.1114 243
144.9944 169
147.1438 340
148.0039 223
150.5002 160
152.0356 686
154.1557 336
157.0385 383
158.1254 579
159.0125 469
159.1248 660
160.0613 941
160.1301 159
164.0357 378
166.9043 221
168.0319 259
169.1335 254
169.1668 185
170.0466 190
171.1865 242
172.0106 1707
172.1109 576
175.1223 1510
175.1555 1704
176.122 255
178.0779 198
179.134 228
182.0521 160
183.1876 2927
184.0128 301
184.0667 177
184.192 456
186.0302 1137
188.0074 223
190.0234 399
190.1263 1532
191.1277 242
193.0072 420
195.0037 2788
195.1175 172
196.0066 644
197.0005 2225
198.0323 1076
200.1142 179
202.0265 1722
202.9339 367
203.0355 426
203.9326 146
204.0434 1294
204.176 1027
204.9303 310
205.181 327
210.126 297
211.0256 171
211.187 640
213.017 891
214.024 218
215.0158 599
216.0452 1045
217.1419 703
218.1281 433
219.0044 286
220.0256 421
220.9472 331
221.9471 462
222.9453 271
223.9363 377
226.124 560
227.9283 136
227.9789 226
229.1675 161
231.0606 163
232.0264 2028
234.0013 312
235.1556 7524
236.004 157
236.1598 1299
237.1626 186
239.167 267
239.9847 229
241.9479 348
243.9799 180
244.0322 288
244.1406 212
245.1422 243
245.9492 5200
246.0443 191
246.953 403
247.9473 2036
248.9503 143
249.1493 352
249.9438 284
250.0401 4204
250.1496 165
251.0471 518
252.0334 1008
253.0414 188
254.0352 426
255.0676 156
256.1398 343
257.2051 171
257.9931 600
258.0623 264
258.2018 261
258.8624 137
259.2005 187
259.9697 1015
261.9708 290
262.0465 450
263.0391 701
263.1513 188
263.9637 2788
264.0594 3867
264.966 169
265.9627 1113
265.9893 1127
267.1626 484
267.9599 157
268.1663 267
269.1788 160
269.9854 271
270.1644 132
271.9823 217
272.0194 226
272.1858 170
273.1827 207
274.0466 329
275.1784 155
275.2276 157
275.9659 5815
276.9739 618
277.9669 2562
278.9674 187
279.9663 341
280.0106 505
281.1597 357
281.9806 484
282.1959 218
282.2431 308
285.1882 144
285.9792 387
286.8567 2993
288.8553 396
289.0614 1413
289.9852 3081
290.0511 512
290.9917 440
291.0569 467
291.982 1234
292.0598 922
293.0521 159
293.9799 2265
294.8946 209
294.9873 289
295.9794 970
296.214 333
297.2173 169
299.0313 459
300.0282 148
300.2183 133
300.9922 8290
301.991 919
302.9905 1006
303.2145 152
303.9935 169
304.225 132
304.9835 304
307.0712 17331
307.9993 729
308.0777 2369
309.0716 2617
310.0002 266
310.0751 209
311.9966 140
312.2192 437
315.0201 256
319.0091 2812
320.0108 217
321.003 283
323.1908 116
323.2946 2493
323.9815 955
324.2148 290
324.298 779
325.1507 152
325.2177 189
325.2941 140
325.9711 222
326.2145 151
326.271 323
327.2076 173
328.2515 158
334.016 138
335.0148 449
336.9775 2565
337.9829 268
338.2522 429
338.9757 1365
339.9814 150
341.3081 818
341.9961 850
342.3108 221
343.2322 212
343.9939 270
344.229 280
353.1218 194
354.9935 252
360.233 132
361.2599 1460
362.2654 235
367.2724 345
368.2726 238
376.2509 321
377.2565 272
379.2694 205
380.0623 489
381.0113 10756
381.2503 153
382.0159 1487
383.0106 5733
384.0148 739
385.0102 1216
388.337 178
389.3485 177
391.0406 186
396.3051 167
397.3013 147
399.0275 3912
400.0311 453
401.0241 1984
402.0267 176
403.0234 306
404.2542 589
405.2575 509
411.3373 104
416.9964 543
418.9933 518
420.9923 139
421.3105 688
422.3081 177
424.3054 450
425.314 405
426.3105 144
441.2666 191
443.0198 462
450.2583 249
452.3204 119
458.2954 542
459.3003 169
463.1079 184
475.1571 646
475.3268 2131
476.3237 665
478.2644 117
488.3832 129
490.3699 286
496.3597 318
508.2662 158
508.4332 291
508.5797 145
508.6816 181
509.352 120
509.3642 109
509.4346 139
510.3595 307
511.3401 262
511.4509 444
511.5071 551
512.3453 136
512.5056 190
513.5175 342
518.2707 210
528.3621 118
529.3501 416
530.3442 144
535.2964 300
537.0324 113
546.3744 10830
547.3765 4208
548.379 900
549.3802 196
553.3172 332
554.3086 109
556.1065 324
556.4641 315
557.3471 209
557.4658 588
558.4707 637
559.4656 157
590.3842 139
591.3722 279
610.4244 312
611.4255 576
612.4346 335
627.4495 111
642.4569 166
647.3976 229
648.4082 403
649.4083 241
659.4851 4763
660.4859 1883
661.477 527
669.471 149
671.5363 138
672.5259 194
739.532 445
740.5354 214
743.5833 168
747.518 189
748.5165 527
749.4754 142
749.5099 163
755.4283 112
756.5528 6849
757.5562 2828
758.5569 849
759.5557 158
858.6305 200
914.656 168
915.6722 544
916.6706 311
END IONS
BEGIN IONS
TITLE=Spectrum 1DGPLTGTYR.csv DRIFT_TIME=17.4815 16.4741 16.8377 16.6403 19.1236 19.5589 17.081 16.8046 19.4156 18.9148 18.4435 17.1543 20.7802 22.0734 18.1014 20.4259 21.5154 22.0096 22.3662 17.9873 20.1655 21.4004 19.828 25.935 22.4085 24.0784 25.3506 26.1386 19.4917 22.1953 22.4179 21.7596 21.8085 25.1924 30.1446 26.0311 23.62 21.3098 34.1486 23.6391 22.3218 23.725 23.4907 34.146 30.1309 23.6524 23.4516 23.7197 24.0201 23.8247 24.2655 29.007 27.2344 38.1374 33.2087 38.6981 28.8362 27.6012 31.358002 39.0804 29.1275 37.9343 45.8334 36.222 36.6928 35.5712 45.1735 45.8578 36.5379 48.4116 37.0805 51.9159 49.1334 55.9181 61.8061 62.5847 66.0442 65.9995 77.4965 81.8288 81.3709 71.8209 70.052 67.9858 66.8373 89.1097 89.3022 89.1121 102.6378 103.9326 112.3397 117.1854 121.0644 121.7383 119.8557 151.2669 
PEPMASS=490.2485
CHARGE=2+
115.0218 168
122.1076 161
129.1302 170
130.1137 458
132.991 634
134.9884 549
136.1063 165
147.1444 264
151.0058 207
153.0062 236
157.1686 142
159.1104 393
160.0634 365
166.9037 1585
175.1555 156
178.0793 216
183.1858 126
184.9188 262
185.2096 225
187.1122 258
195.9353 2512
204.0443 180
213.9523 1338
223.9357 2319
224.1518 131
224.9434 132
227.9324 123
229.168 472
231.9696 261
241.942 5309
242.9574 618
243.9524 199
245.9488 399
250.0418 461
252.018 269
252.038 151
259.9191 2761
259.9659 1606
260.2567 448
260.9274 299
260.9741 197
261.9151 2960
263.9197 293
269.9873 133
270.0374 148
277.9315 3233
278.9411 361
279.9304 3241
280.9409 145
281.9341 326
283.9737 149
286.8593 251
288.0043 652
298.2075 159
300.1515 147
300.2219 282
304.876 416
306.0205 789
307.0756 571
316.2217 182
322.893 309
323.9838 148
328.2603 167
334.0143 184
342.0025 211
345.032 221
347.3038 1103
348.3038 171
352.0264 113
369.2529 167
379.9634 210
387.2767 118
409.0929 140
415.2758 583
462.3593 826
463.3622 221
484.3147 432
485.3117 133
487.4777 125
489.4162 324
490.4143 111
496.3653 563
497.3677 169
502.3317 588
503.3408 142
575.4687 417
597.429 1094
598.4421 350
646.5202 508
647.5268 235
710.5409 365
711.5551 164
761.564 1303
762.5665 535
763.5873 188
874.674 494
END IONS
BEGIN IONS
TITLE=Spectrum 1EPISVSSQQMLK.csv DRIFT_TIME=15.956001 16.0413 16.063 15.976 16.1912 16.1036 16.2214 16.5056 16.2146 16.1891 16.1416 16.1904 16.2072 16.5419 16.2187 16.724 16.484 16.1887 16.7123 16.3742 16.5896 16.514 16.5196 16.4102 16.4382 17.2503 17.1039 16.5982 16.6831 16.7214 16.6928 16.7248 16.5497 16.2964 17.0038 16.7175 16.4215 17.056 18.6427 17.3752 17.0061 18.5871 18.7516 17.7808 17.111 17.9683 18.504 17.3742 18.9584 18.8646 18.9648 16.8903 21.8662 22.1669 17.0296 18.2031 16.9322 17.9541 19.6119 20.5139 20.5819 19.0502 21.2986 17.1434 24.731 19.8001 19.3502 18.7052 18.8721 18.564 19.0161 20.4654 20.1904 25.4793 25.1843 23.219 21.6638 25.7751 18.6785 23.3995 24.3028 19.4262 23.8821 19.3711 19.2967 34.0937 19.2125 19.4744 19.4256 19.1379 19.4984 24.7308 23.3053 26.2528 24.4205 22.7586 22.238 20.2124 22.1505 20.8872 27.934 30.0332 22.8738 23.0048 26.6706 21.6601 21.3561 21.2861 27.2768 22.3356 29.2269 22.229 22.2635 29.6344 22.685 35.1185 32.5356 26.3736 26.4961 31.446602 31.645699 26.3343 26.3982 26.4729 26.2236 25.7013 31.641502 32.3085 37.7795 32.4242 36.9801 31.3275 36.9214 26.9049 27.0403 26.5835 26.4446 26.5549 31.8252 33.0362 33.0677 33.2436 30.2095 25.7036 29.7375 29.6432 38.654 29.5553 31.011002 29.928 36.7608 35.741 36.6397 36.5077 34.4327 29.5596 36.4667 42.1239 31.556198 31.993698 44.1086 43.8134 49.0811 49.3779 35.9613 43.12 45.721 45.9515 33.4912 33.1941 32.9966 43.9641 43.1801 44.2172 44.2616 43.8191 54.009 54.2062 47.5512 38.8074 38.8871 38.3005 54.1617 50.137 47.9671 54.3316 32.0264 32.525 32.1668 32.5592 32.1994 37.9074 54.1465 54.5869 38.0706 50.4935 37.4174 49.6757 47.9451 34.2415 48.8356 40.8715 52.3561 34.3259 44.3517 44.6301 43.891 44.0901 52.2542 52.8141 59.4214 55.0022 59.7219 47.9248 44.6823 46.0134 56.0924 45.1087 56.7295 58.1084 47.9116 59.717 57.0971 65.8221 48.2453 67.3043 67.1892 67.5261 50.1402 67.5006 65.4018 75.4635 72.9985 70.1469 78.4012 90.8405 78.9948 76.9053 93.9259 70.9149 70.0305 52.6514 49.7197 75.1323 81.0873 81.0887 80.6447 77.7516 54.0804 83.7462 85.034 91.5172 87.6901 94.1323 93.3684 94.6413 93.9324 101.1297 114.0444 111.8778 112.6281 100.6577 116.2686 116.6358 116.0473 115.6199 136.4382 137.5005 138.5704 
PEPMASS=673.856
CHARGE=2+
101.0916 293
102.0755 730
104.0908 401
110.093 441
114.1127 285
122.1055 1036
129.1273 401
129.9917 163
130.1122 1030
136.1036 190
147.1411 587
154.156 336
159.1441 890
160.0614 565
171.1821 285
172.0104 489
173.1618 495
175.1535 177
178.0719 160
181.1327 2076
182.1378 205
183.1485 901
183.1862 717
184.1502 207
187.1397 214
196.0418 189
198.0365 188
199.1466 866
201.165 259
202.0251 914
204.0378 339
209.1328 2910
210.1361 478
214.9307 386
216.0443 525
216.1413 199
216.9276 353
220.0376 195
223.2023 137
223.9363 314
227.1473 394
233.9988 1987
235.9968 573
240.1487 210
241.9487 521
245.9479 192
248.2119 311
250.039 1579
252.0118 2188
254.0095 688
257.1757 160
259.9223 171
260.2471 1099
261.2564 161
261.9153 1015
263.0365 501
263.9108 277
265.0299 136
266.9522 150
269.9824 914
271.9792 529
274.1927 281
276.2268 143
279.9288 550
280.2209 203
284.9576 125
285.1766 150
286.8534 1040
287.9986 1469
288.8502 357
289.0561 597
289.9915 373
290.0807 253
294.2422 573
295.2396 141
298.2363 240
303.188 113
304.2126 159
304.868 766
305.1674 126
305.9685 147
307.0663 16178
307.9628 151
308.0732 3165
309.0675 3880
309.3376 123
310.0704 825
311.0664 1946
312.0697 271
313.0632 210
315.063 133
319.1117 127
320.2175 146
322.2416 601
323.1867 122
323.9763 1527
324.9812 126
325.9556 2035
327.9652 162
339.0641 191
340.2557 341
341.3158 167
341.9922 1263
342.9935 174
344.2332 226
345.0273 1304
347.0271 168
349.0157 148
355.095 386
361.9361 3994
362.2748 251
362.9528 277
363.9362 1581
364.2679 108
364.9399 117
369.3536 212
373.2638 203
380.06 148
381.0097 1210
381.2903 854
382.2937 190
383.0096 545
385.0049 257
385.9999 110
386.9989 169
391.0458 127
391.0843 179
391.2749 4027
391.3199 869
392.2801 1040
392.3212 219
393.2794 117
393.3167 119
399.0256 434
401.0287 192
405.0659 1283
406.064 316
407.0591 288
409.0977 103
409.2886 2361
410.2932 578
411.2973 111
416.9926 458
417.9248 156
418.9915 382
420.9878 122
423.3239 126
424.9839 120
425.0961 137
427.0237 176
427.307 518
428.3107 143
431.2725 531
432.2829 120
445.0794 160
447.0512 699
450.2484 397
451.3183 308
454.9531 344
456.95 182
462.3658 1067
463.3754 347
464.4337 609
465.4389 248
466.1246 175
475.2948 138
480.373 473
481.3847 155
483.0355 686
484.0434 111
485.0225 196
486.3298 307
489.3273 165
490.3625 1675
491.3653 502
492.3696 137
492.4713 3440
493.4737 913
498.3882 134
499.0683 374
500.0633 157
501.0686 200
501.3805 154
502.3729 362
508.3782 310
508.3817 284
508.9496 1716
509.9617 180
510.9459 577
514.9436 229
516.9424 244
519.0208 304
519.4032 907
520.4046 341
521.0172 171
530.3606 128
537.027 213
545.3169 179
546.2032 193
546.9028 634
547.1793 215
548.1295 275
548.3907 248
548.9001 198
556.0997 2583
557.1018 568
558.1015 622
560.1054 124
562.3437 670
563.3282 166
564.4354 190
577.4205 228
588.3975 110
592.0873 332
594.0585 1001
595.0734 146
595.4256 562
596.0668 199
596.4306 237
599.4018 153
613.1349 254
613.4407 115
617.4116 186
629.4736 144
630.0438 156
630.4588 261
647.4778 681
648.4886 255
651.0927 409
658.429 134
661.4304 131
673.5401 540
674.5392 180
675.4467 348
675.5084 263
675.6626 143
676.5238 128
677.6143 185
677.6778 229
685.4836 261
686.481 124
687.0702 138
721.989 247
730.4875 168
734.5326 1784
735.5338 747
736.5376 278
748.4663 192
779.0422 159
784.5628 214
785.5518 153
803.5713 176
804.5555 314
821.5742 6499
822.5797 3440
823.5863 1146
824.5815 418
897.6636 209
920.667 1465
921.6704 948
922.663 352
938.6524 136
1007.7133 3506
1008.7165 2212
1009.719 974
1010.7199 300
1120.8276 632
1121.8306 519
1122.8298 272
END IONS
BEGIN IONS
TITLE=Spectrum 1HNGPEHWHK.csv DRIFT_TIME=15.9293 16.0083 16.0215 16.0648 16.4228 16.1752 16.4725 16.0584 16.0357 16.2186 16.1514 16.1295 16.378 16.1793 16.5028 16.176 16.7438 16.0942 16.1802 16.2855 16.0236 16.3809 16.8613 16.6761 16.3176 16.6511 16.7613 16.2096 16.3428 16.3951 16.2529 16.3909 16.262 16.4808 16.6467 16.7962 16.237 16.6376 16.8029 16.4934 16.4826 16.6778 16.252 16.9224 16.3701 16.9194 18.3993 16.7795 18.4617 16.8003 16.5777 17.1885 16.9182 17.5392 16.7867 18.136 16.6518 16.1589 17.3155 16.7004 16.8713 16.7098 16.3729 17.9162 16.3694 16.9318 16.9265 17.0396 17.0806 17.0398 17.3049 18.0461 17.728 17.139 16.992 16.9399 16.8438 16.5431 17.1266 17.0544 18.0974 17.2828 18.3204 17.155 17.3427 16.2111 16.9613 18.9377 17.4546 17.4245 17.0735 17.6057 17.1922 19.7878 16.8319 17.4835 18.4072 17.96 18.4332 17.5482 18.4095 17.4172 17.3431 19.7604 17.3228 17.9465 17.4363 17.9497 17.5632 17.5989 19.8758 21.9958 18.2666 22.0372 18.1648 18.765 19.7994 18.9439 19.4555 18.6142 20.5496 20.7576 20.5024 20.7879 22.786 22.8292 20.5036 22.1771 21.7097 22.8084 23.6775 22.7911 22.9223 29.0194 22.8002 23.6426 25.8947 27.6083 28.5763 31.5102 28.6692 28.9898 34.2431 34.2589 26.4839 26.6818 26.5838 38.2738 26.1665 26.612 26.1463 40.2241 40.7511 35.1364 29.537 27.0799 27.0637 27.3387 35.0453 27.6497 38.5188 38.2893 32.1047 32.0511 31.947601 29.9541 39.1191 29.9983 30.1842 28.7213 30.7457 33.115 29.7724 31.1656 39.0257 37.2432 57.4521 36.9055 31.8741 32.7481 33.1583 32.2386 32.9124 33.4041 33.1873 33.1877 38.3341 42.7128 61.1606 32.2462 35.4409 42.7803 43.2384 36.755 50.4968 51.2233 47.1263 35.7667 36.1604 38.2731 38.5665 38.3778 40.3657 38.2921 40.9964 56.0156 55.6387 37.0922 37.0412 52.4869 42.3588 49.2919 45.8512 46.2046 46.487 41.1331 44.7685 43.9867 41.3588 52.0217 42.2015 55.0705 52.7522 53.0768 53.04 43.692 44.0355 59.3793 59.4728 59.8102 56.0986 50.8357 69.537 73.1374 54.5043 64.1387 72.0671 43.6372 63.843597 59.2162 61.471 67.3338 43.0832 57.9605 59.3985 46.4931 59.7166 63.786804 52.2269 45.6904 45.9713 45.0588 45.2329 53.2127 61.7422 53.7636 61.4998 48.1165 60.0206 63.7546 48.7212 67.1756 61.4727 49.9491 50.6327 49.8987 59.7328 74.9025 74.9294 74.8099 61.8083 61.3038 73.0748 73.0697 71.1133 70.7665 52.4378 52.4419 67.4407 68.7665 68.0171 86.1925 75.9659 84.9415 84.7942 83.9323 88.997 83.6941 83.7551 85.7231 85.6198 80.1984 84.3213 84.4801 87.0353 89.6163 95.9951 97.5092 95.4183 100.694 105.1613 104.1203 108.8176 109.8464 106.8669 110.0726 107.5164 125.7581 
PEPMASS=571.271
CHARGE=2+
101.1263 145
102.9908 155
104.0922 722
110.0948 6776
110.9974 322
111.0954 561
113.0137 210
115.0467 198
119.0733 457
120.1052 3539
121.1096 414
122.1071 1884
125.0169 348
129.1281 1970
129.9915 1708
130.1128 1246
130.9203 209
132.106 211
136.1037 2975
137.1066 345
141.4896 2409
141.995 278
144.009 211
144.9933 252
147.1435 719
148.0048 349
148.9353 219
150.4968 1062
154.1578 274
155.1256 183
156.1071 301
157.1292 601
159.1232 840
160.0621 623
160.9343 232
162.023 394
162.1015 160
164.0364 279
166.904 863
168.0307 1152
171.1842 285
172.0084 5281
175.1547 318
176.9306 664
178.0876 379
184.012 1317
184.8723 326
186.0293 323
186.8679 353
190.0237 1212
195.9354 279
198.0298 1426
200.0391 195
200.8935 362
202.0244 10775
202.8911 211
204.041 4854
204.4543 148
204.9276 8481
205.0441 371
206.0044 631
207.13 1007
210.0681 238
210.1206 185
213.9597 785
215.0004 246
216.0429 5285
218.0603 1125
219.0011 1553
220.0365 1348
222.9443 3328
223.2018 275
223.9353 1554
224.1597 672
224.9426 802
225.163 144
226.9932 188
228.9774 132
229.0432 642
230.0616 345
230.1922 177
231.0577 1252
231.1974 285
232.0275 842
233.0162 488
233.9749 181
234.0565 328
234.1676 177
235.0373 806
235.1314 838
237.0168 203
240.9579 374
241.9498 1936
242.2362 147
242.9569 456
243.0615 400
245.9497 194
247.0375 281
247.1955 448
248.0237 833
248.2086 740
250.0372 16507
251.0433 2221
251.2023 479
252.0366 2570
252.1623 2330
253.04 190
253.1578 597
254.0334 517
255.0634 397
256.2196 267
260.2504 1495
261.0751 161
261.2545 252
263.0366 6837
263.9644 142
266.2169 871
271.0438 552
274.2135 167
275.9683 206
284.2303 2380
285.235 432
290.0494 524
291.1825 348
292.229 126
296.2094 253
300.9922 166
304.227 359
309.1996 304
323.9783 3121
324.2109 542
324.9861 251
325.976 1166
330.2622 161
335.02 103
336.9818 242
342.2246 131
345.2487 135
347.2995 133
350.293 174
362.2809 623
363.2799 179
364.3111 160
375.3145 187
381.0098 7958
382.0176 817
383.0097 1597
383.3672 175
384.0137 177
385.008 268
385.9487 161
387.3226 529
388.3209 152
389.3022 126
391.0884 124
399.0264 2643
400.027 287
401.024 498
403.3211 194
407.0596 160
407.3492 2090
408.3552 474
409.09 9888
410.099 1178
411.0918 1043
416.9938 10619
417.3332 221
418.0004 1131
418.993 1306
419.9989 144
421.0372 306
421.2753 117
425.0141 322
426.0739 213
434.3234 154
435.278 188
436.502 546
438.278 120
442.0372 808
443.0223 1197
443.1029 2575
444.0341 598
444.1088 480
445.0894 1274
446.0913 196
447.087 551
452.2053 135
452.3343 117
454.5197 228
456.9495 157
466.131 474
470.3453 888
471.3572 216
481.0607 132
488.4302 229
489.4193 108
490.3656 203
497.0548 1137
498.0587 336
499.0693 5443
500.0765 1024
501.0688 1239
502.1092 1764
503.0765 250
503.1206 201
506.439 625
507.4326 202
514.039 697
516.0365 169
516.4264 156
518.3101 201
522.3852 224
532.1927 254
533.1974 137
534.1874 185
535.0534 566
535.3332 598
536.3352 159
538.0959 993
538.4 368
539.0937 149
543.4109 135
546.3762 140
548.3929 843
549.4034 287
556.1116 184
558.1481 370
563.4713 5481
564.4754 1877
565.474 456
570.4193 328
570.4285 427
570.5634 138
570.6109 148
571.4179 329
571.4728 879
571.5668 123
572.0933 124
572.4751 352
573.2865 345
573.4789 130
573.5372 145
574.0754 177
574.2849 113
574.4735 321
575.1838 1743
575.4595 1371
575.5259 759
579.3861 137
594.0605 515
595.0533 150
596.0626 249
598.0543 145
607.3861 249
607.4312 437
608.3845 149
608.44 159
613.1417 253
620.4244 112
627.4467 116
632.0485 146
635.4906 132
644.4316 174
651.095 380
652.0859 119
653.0914 173
655.4069 161
662.5582 3322
663.5628 1458
664.5689 344
672.4256 936
673.4246 327
676.5079 336
677.5115 145
685.4822 997
686.4911 367
687.0686 137
689.068 190
721.4569 218
744.4617 136
745.4861 146
761.6489 447
762.492 127
762.6531 306
784.564 563
785.5745 306
813.58 145
830.5326 379
831.5344 204
833.574 415
834.5761 221
841.5172 132
858.5457 963
859.5385 577
860.5515 190
876.5567 138
890.6032 1475
891.6046 572
892.6045 194
897.6753 545
898.6865 283
996.6065 140
1004.6777 798
1005.6711 617
1006.6688 231
1013.6401 155
1015.6312 229
1034.7612 239
END IONS
BEGIN IONS
TITLE=Spectrum 1MVNNGHSFNVEYDDSQDK_1049.csv DRIFT_TIME=11.1817 11.0229 11.3297 11.2934 11.2647 11.3865 11.3724 11.3521 11.4173 11.3855 11.6486 11.4059 11.2952 11.343 11.3961 11.8256 11.3736 11.6368 11.8599 11.8005 11.8836 12.0109 22.3187 19.2814 23.3115 21.2361 20.4918 23.4243 22.8544 21.7491 22.3219 25.401 27.5171 23.8012 25.8257 29.6425 28.7175 29.9925 30.1555 25.9907 27.7269 27.0934 33.1331 32.3403 27.2516 31.151299 31.543999 34.9832 30.6769 30.4646 34.6117 39.2757 39.4412 32.0061 32.2967 32.0231 32.2783 43.2214 41.6222 34.2157 34.2701 34.2514 34.2984 34.1802 33.8853 33.7686 45.0942 44.8896 34.0753 34.0876 33.6191 33.2959 33.2753 42.2402 36.7872 35.6122 35.7917 35.5428 44.8706 35.1254 44.526 35.5374 44.4448 35.573 35.1321 37.147 36.7878 36.9916 37.0117 37.0462 50.1515 37.3277 50.339 37.4117 47.5224 48.7379 47.9372 51.9101 51.8913 39.6511 50.7007 49.928 39.7308 39.0358 39.8504 40.3558 51.1559 38.7548 51.6645 42.9625 42.7873 41.5375 45.9037 46.0292 43.7326 62.0239 67.0987 65.895 67.026 47.0839 46.9311 67.1679 50.8004 76.0136 77.1884 77.2389 78.1302 77.9793 79.3986 79.0965 80.6169 79.9387 78.2735 93.9993 90.5123 98.7999 104.4417 124.3797 131.8066 130.1019 
PEPMASS=1049.9445
CHARGE=2+
56.0593 433
57.0442 271
70.0765 389
72.0936 191
84.0942 898
104.0871 657
110.0891 400
122.1001 1660
123.1041 146
129.1209 368
129.9859 154
130.1082 430
136.0986 451
147.1353 195
158.1246 510
172.0037 297
195.1171 151
202.0172 719
203.1519 615
216.0348 297
226.1568 217
227.1377 188
340.2375 129
345.2153 236
357.3054 338
372.2501 323
373.2356 577
390.266 369
395.2505 272
396.2347 150
409.0769 163
414.2582 114
442.2667 137
445.057 193
446.2337 133
459.2867 210
460.2905 122
477.3119 1669
478.3138 380
497.0321 112
499.0495 136
504.0692 254
516.3134 333
517.3082 127
518.9976 403
556.0867 649
557.09 166
561.2766 123
572.9927 437
576.0196 119
585.1312 158
592.3606 1007
593.3565 249
594.0385 2123
595.0414 406
596.0461 509
598.0381 291
608.3642 280
609.3553 136
613.1153 3184
614.1239 1108
615.1147 1532
616.1178 586
617.114 898
618.1159 188
619.103 140
625.3938 616
626.401 338
630.0199 564
631.0308 113
633.037 155
634.028 326
636.0297 127
636.3625 158
649.1038 247
651.0677 3369
652.0696 1053
653.0706 1300
653.3984 823
654.0738 483
654.3827 235
655.0668 771
655.4039 124
656.0713 243
657.0642 179
687.0567 1115
688.0561 293
689.0307 2464
690.0397 501
691.0401 853
691.4294 689
692.0425 208
692.4291 233
693.0376 276
695.4179 106
707.4054 720
708.4056 257
712.4499 139
722.4262 140
723.0367 137
723.4261 162
724.3684 127
725.021 398
726.0253 139
727.0083 285
729.0356 128
740.4449 503
741.0486 1629
741.4488 240
760.9928 381
762.9845 394
765.0176 111
798.9621 123
800.9583 111
831.8966 108
853.478 142
870.4996 698
871.4979 336
887.5341 183
888.9221 446
892.9008 266
922.5484 208
924.9077 124
999.5553 546
1000.5694 342
1001.5812 371
1002.588 210
1003.5726 148
1032.6414 175
1033.6442 192
1050.6602 1227
1051.6616 666
1052.689 219
1098.6495 179
1100.6781 213
1212.6986 300
1229.7412 223
1446.837 267
1446.8383 265
1447.851 226
END IONS
BEGIN IONS
TITLE=Spectrum 1QSPVDIDTK.csv DRIFT_TIME=16.3109 17.4302 16.1662 16.2331 18.3111 18.0107 18.5116 17.578 17.6177 16.7346 16.3758 16.472 16.3154 16.3802 19.6293 16.3675 16.6832 19.4341 16.5111 17.4179 16.805 19.1957 18.6356 19.6001 19.2269 19.7772 20.3938 20.2672 16.9727 16.93 16.2134 16.6895 19.1746 19.9379 17.0404 19.1594 19.1424 16.1663 18.8846 19.4815 19.2256 16.978 19.0959 16.9047 19.6971 16.6117 17.2521 20.6366 17.6265 22.2857 17.4287 18.8176 17.2453 19.1924 17.383 20.3269 20.0316 19.2953 20.5635 19.9641 21.9953 17.0804 18.9713 18.2432 18.2883 18.6866 19.2425 17.9951 18.4928 17.3199 20.8427 17.3371 17.1495 20.6615 21.8125 18.1817 20.7466 17.7148 20.5603 20.3279 28.7725 18.6489 20.3238 21.6269 17.9722 21.6381 22.2889 20.3028 20.1245 21.8319 18.7967 19.1222 21.2471 21.6706 21.5672 18.5187 19.8859 23.8644 22.8842 23.9223 20.2981 20.0795 21.629 21.3312 21.3767 22.5037 27.83 21.3212 21.2979 21.7158 21.1421 20.5915 22.1718 26.9127 22.0244 22.1365 19.6439 19.6864 22.2776 24.0751 23.325 20.8746 23.0005 22.8301 23.1176 26.4051 26.1683 22.957 22.5079 31.3396 24.3789 26.561 22.4034 24.2643 26.831 25.9922 24.7363 25.6058 25.3607 28.0546 32.449 22.2663 22.7066 22.3107 28.6127 28.8056 29.7715 22.8509 29.0583 30.7498 25.2309 28.6208 28.6617 25.5139 29.0317 28.9271 25.7645 25.5655 25.5432 25.5182 25.6878 25.2971 28.9461 30.9368 28.1692 29.9053 23.6527 34.8969 28.6525 28.3575 30.1198 30.858 26.1948 26.4002 26.1401 26.2068 34.051 26.1138 31.5191 28.2942 31.852402 30.1928 31.1344 31.204498 32.1665 31.576 30.0006 33.2319 29.7343 35.1454 31.2416 27.7697 30.3817 32.7877 28.9171 32.594 28.9794 29.2051 31.1744 31.281403 30.4946 34.2667 35.3327 31.674202 36.3993 33.2026 40.6603 32.2272 27.7645 34.6218 31.070099 33.1986 31.132797 31.2835 31.494102 31.328697 39.3895 30.8382 39.1069 38.5889 31.051598 37.9651 35.1274 37.8778 44.4056 35.8624 46.0845 37.0884 42.9753 44.9268 31.0481 34.3152 36.0017 36.5245 48.7147 36.9267 34.6887 39.9066 43.0726 35.246 36.9662 36.3793 45.4849 35.108 43.0727 34.9574 42.7756 35.0931 45.2503 35.2116 36.5769 47.2262 36.7896 36.9336 48.1326 34.3917 42.4935 36.1545 45.1703 45.4549 45.7551 50.3684 49.6747 42.0367 41.6373 42.2339 51.903 42.8403 48.1753 43.0022 53.0952 42.5832 41.8033 43.099 54.4317 52.2424 53.098 51.604 59.7125 59.4934 43.2003 50.0469 49.9231 44.136 37.8456 48.9901 55.851 54.2294 50.5095 51.1416 39.5653 48.9935 59.2186 58.5274 54.9468 58.3254 58.7852 55.8576 58.3301 58.5956 59.1734 57.6643 58.0201 64.7764 51.0693 71.013 53.2954 51.2133 54.2256 68.3131 60.8589 71.0028 71.7133 71.3659 63.4591 70.068 70.0389 46.2317 63.454605 60.922 59.173 78.877 78.8781 102.825 65.3099 65.4839 67.4679 60.792 74.7242 75.0251 75.354 78.9853 87.0191 87.3736 88.7005 83.3449 83.2425 86.9423 86.728 90.1866 69.157 85.7858 85.2887 92.1352 89.593 94.1244 87.6464 91.4784 92.1744 102.2425 103.9713 102.3812 103.2552 104.5576 103.2651 118.1624 109.9967 105.535 107.7924 115.3126 114.1919 114.4082 126.799 120.163 124.8621 119.4559 119.0755 124.4537 127.8156 131.1184 124.4596 130.0432 118.7473 131.1568 137.2153 131.5182 143.6717 149.1756 156.769 
PEPMASS=501.762
CHARGE=2+
101.0931 770
102.9916 251
104.093 799
110.0958 636
112.0319 143
113.0173 215
114.9769 9332
116.0283 1367
117.0135 510
120.1063 255
122.1074 1688
125.0973 564
126.0821 5781
127.0852 603
128.9967 1242
129.0946 508
129.1305 2458
129.992 1066
130.1144 2924
131.0285 258
131.1193 207
131.9876 248
132.992 4702
133.9973 1619
134.9935 353
135.9936 392
136.9608 180
140.9992 373
141.0945 165
141.1337 466
141.4918 346
143.1131 890
144.9945 1876
147.0121 448
147.1445 1681
148.0055 457
150.0018 135
150.4992 191
151.0051 708
152.0125 793
152.0347 456
152.1119 304
153.0066 159
153.0986 670
154.01 270
154.0852 382
154.1566 170
154.9753 185
156.136 172
156.9833 177
157.1323 420
158.0467 281
158.1288 148
159.0151 756
159.1157 203
160.0636 534
162.0264 470
163.0103 1086
164.0369 340
166.0202 214
166.9054 1058
167.1205 370
168.0332 153
168.1166 123
169.1332 476
169.1699 2265
170.0489 200
170.1292 4962
170.1752 213
171.1136 3442
172.0115 1175
172.1164 364
173.0961 155
174.0121 300
174.9956 628
175.1584 181
176.0035 227
176.0597 565
177.0286 185
178.0806 283
179.0406 158
181.099 206
182.053 312
184.9193 177
185.1343 155
185.2027 137
186.0303 742
186.1286 121
187.1511 200
188.0133 434
188.1437 1572
189.1421 235
190.0278 700
193.0067 21451
194.0149 557
195.1209 336
195.9373 1083
196.0489 165
197.1745 242
198.033 794
198.13 1029
199.1181 323
201.1675 1224
202.0305 1246
204.0449 4196
204.1771 189
205.0279 131
205.0487 540
206.0422 2252
207.0429 251
208.039 1770
209.1374 233
210.0003 222
210.1269 486
211.0216 15533
212.0268 335
213.1336 339
213.9524 591
215.1468 143
216.0489 657
216.145 307
217.1317 209
219.002 194
220.0317 389
222.0245 405
223.0356 200
223.9377 1319
224.0223 198
225.9563 835
226.1235 158
226.1257 223
228.1402 404
229.0372 761
229.1666 358
230.2004 916
231.1934 219
232.0286 1631
233.0264 156
234.0238 235
240.1838 148
240.2235 138
241.9513 4639
242.957 256
243.9674 930
244.0361 191
244.1381 193
244.2176 258
244.9667 109
245.9524 214
246.1116 264
248.0273 155
248.2133 7089
249.2173 1088
250.0414 8147
250.1726 376
250.2213 167
251.0468 1446
252.0381 12419
253.0435 2267
254.036 6962
255.041 742
256.034 720
256.1424 182
257.2163 443
258.0719 322
258.2012 808
259.9217 3770
260.2558 155
262.0515 545
263.0436 394
263.9626 199
264.1221 128
268.0582 1208
269.0601 136
270.0544 1976
271.0603 307
271.9857 139
272.0497 967
272.1832 582
274.05 420
275.2301 590
275.9707 202
276.828 396
278.825 197
280.0181 586
281.1642 473
282.0197 829
283.2038 306
284.0194 223
284.2283 110
284.9649 141
288.0039 544
289.0623 1659
289.9902 222
291.1081 1909
292.0642 392
292.1108 250
293.0959 239
293.9865 251
294.8447 448
294.9911 131
295.2025 211
296.1887 338
296.8393 240
297.2098 113
298.0297 317
299.2678 131
300.0305 225
300.9228 174
301.1793 110
307.0749 6511
308.001 128
308.0802 1156
309.0736 1410
310.084 171
311.0733 374
312.2234 4831
312.8596 325
313.2276 916
314.2261 154
314.8537 258
315.2356 171
319.0084 137
319.2299 205
319.2671 124
320.0644 748
321.2797 242
323.9754 170
327.2353 112
328.2541 118
330.8714 126
331.0819 377
334.0135 1009
335.0166 179
335.1903 210
336.0109 115
336.9499 429
336.9861 118
338.1828 170
339.057 928
342.001 348
343.992 206
344.2194 432
345.0321 4339
345.2497 568
346.0345 536
346.235 134
347.0302 499
347.3032 247
349.0308 160
349.0986 150
349.2642 132
352.0285 665
353.0314 157
353.2133 104
354.9657 315
358.2128 165
363.0471 426
363.2654 3327
364.2742 590
365.2792 140
366.3013 125
367.2837 186
373.1426 920
374.143 242
375.1368 415
379.2729 168
381.0167 1316
381.2556 134
382.0133 183
382.3252 162
383.0145 484
383.0913 397
385.0131 132
388.3406 773
394.2922 549
395.2812 173
396.3027 117
397.3288 828
398.3399 254
399.0355 838
399.2753 579
400.2773 157
401.0303 426
401.9879 120
409.1009 148
410.3307 437
411.3238 107
412.268 106
413.2881 108
415.9366 285
425.1004 226
425.3349 597
426.3283 121
427.2792 418
428.3453 151
435.2481 153
440.2716 127
443.3116 418
444.3177 122
445.302 298
453.2692 215
457.2978 161
458.3615 247
459.1096 321
459.3945 277
463.1195 184
465.1128 270
466.1308 301
468.3509 271
470.2958 135
476.377 1751
477.3776 545
478.3787 134
483.2798 242
484.3829 105
490.3739 149
490.9915 184
491.3269 169
492.3214 203
499.0697 210
503.463 499
504.4767 170
506.5837 436
509.342 1941
510.3461 601
526.342 264
537.0379 379
540.384 2748
541.3865 796
542.3906 221
544.3826 129
556.4662 2174
567.4095 527
568.3996 145
573.4094 310
574.4159 157
591.4271 3710
592.4273 1172
593.4315 365
594.0644 321
594.4468 125
622.4437 204
622.4487 281
623.4404 174
623.4484 164
627.4398 207
639.4573 275
641.4562 221
670.5341 478
671.4042 191
684.4701 201
690.5179 1763
691.524 682
716.4385 135
722.4531 274
734.4632 223
737.5096 900
738.5086 357
741.5986 333
752.4839 193
764.485 229
769.5835 223
770.4857 111
770.5665 147
781.512 386
782.4983 242
787.5854 1999
787.5886 1951
788.5917 823
788.5929 1071
789.5962 370
799.5221 427
807.5765 180
856.6364 340
856.6367 283
874.6461 285
913.6735 902
913.6756 691
END IONS
BEGIN IONS
TITLE=Spectrum 1SHHWGYGK_01.csv DRIFT_TIME=23.6446 23.541 23.7564 23.392 23.119 23.366 23.4168 27.7153 23.3211 23.251 28.5768 23.87 23.3936 23.1426 23.4313 23.3369 23.805 23.587 23.3567 23.3084 23.3594 23.3818 23.5543 23.6574 23.9958 23.7554 23.5046 24.6309 23.9859 23.2512 23.4139 23.5124 23.338 23.818 24.4408 23.7715 23.8092 103.1384 
PEPMASS=486.23
CHARGE=2+
53.0192 579
53.0435 320
54.0153 258
54.0394 703
55.0234 1661
55.0601 4196
56.0549 498
56.9705 116
59.0549 4253
67.0607 1365
67.975 286
68.0201 171
68.0558 465
69.0406 228
69.0757 15321
70.0787 893
72.0871 456
74.1024 163
77.0461 495
79.0605 1842
80.058 2784
81.0764 842
82.0716 1033
83.055 313
84.0511 1356
84.0867 473
86.0658 132
86.1032 675
89.0668 535
91.0609 1004
93.077 1020
94.0721 711
95.057 332
95.0929 960
96.0885 1656
97.0728 1134
98.1068 154
398.2117 984
END IONS
BEGIN IONS
TITLE=Spectrum 2SHHWGYGK_01.csv DRIFT_TIME= 
PEPMASS=486.23
CHARGE=2+
END IONS
BEGIN IONS
TITLE=Spectrum 3SHHWGYGK_01.csv DRIFT_TIME= 23.818 
PEPMASS=486.23
CHARGE=2+
95.0929 960
END IONS
BEGIN IONS
TITLE=Spectrum 4SHHWGYGK_01.csv DRIFT_TIME= 23.3369 57.2892 69.7446 
PEPMASS=486.23
CHARGE=2+
70.0787 893
234.1525 887
268.1863 865
END IONS
BEGIN IONS
TITLE=Spectrum 5SHHWGYGK_01.csv DRIFT_TIME= 
PEPMASS=486.23
CHARGE=2+
END IONS
BEGIN IONS
TITLE=Spectrum 6SHHWGYGK_01.csv DRIFT_TIME= 23.3818 
PEPMASS=486.23
CHARGE=2+
81.0764 842
END IONS
BEGIN IONS
TITLE=Spectrum 7SHHWGYGK_01.csv DRIFT_TIME= 
PEPMASS=486.23
CHARGE=2+
END IONS
BEGIN IONS
TITLE=Spectrum 8SHHWGYGK_01.csv DRIFT_TIME= 
PEPMASS=486.23
CHARGE=2+
END IONS
BEGIN IONS
TITLE=Spectrum 9SHHWGYGK_01.csv DRIFT_TIME= 
PEPMASS=486.23
CHARGE=2+
END IONS
BEGIN IONS
TITLE=Spectrum 10SHHWGYGK_01.csv DRIFT_TIME= 23.5124 
PEPMASS=486.23
CHARGE=2+
94.0721 711
END IONS
BEGIN IONS
TITLE=Spectrum 11SHHWGYGK_01.csv DRIFT_TIME= 23.392 
PEPMASS=486.23
CHARGE=2+
54.0394 703
END IONS
BEGIN IONS
TITLE=Spectrum 12SHHWGYGK_01.csv DRIFT_TIME= 24.6309 
PEPMASS=486.23
CHARGE=2+
86.1032 675
END IONS
BEGIN IONS
TITLE=Spectrum 13SHHWGYGK_01.csv DRIFT_TIME= 
PEPMASS=486.23
CHARGE=2+
END IONS
BEGIN IONS
TITLE=Spectrum 14SHHWGYGK_01.csv DRIFT_TIME= 109.6642 
PEPMASS=486.23
CHARGE=2+
410.2154 599
END IONS
BEGIN IONS
TITLE=Spectrum 15SHHWGYGK_01.csv DRIFT_TIME= 23.6446 88.287 
PEPMASS=486.23
CHARGE=2+
53.0192 579
342.1753 563
END IONS
BEGIN IONS
TITLE=Spectrum 16SHHWGYGK_01.csv DRIFT_TIME= 
PEPMASS=486.23
CHARGE=2+
END IONS
BEGIN IONS
TITLE=Spectrum 17SHHWGYGK_01.csv DRIFT_TIME= 23.9859 
PEPMASS=486.23
CHARGE=2+
89.0668 535
END IONS
BEGIN IONS
TITLE=Spectrum 18SHHWGYGK_01.csv DRIFT_TIME= 
PEPMASS=486.23
CHARGE=2+
END IONS
BEGIN IONS
TITLE=Spectrum 19SHHWGYGK_01.csv DRIFT_TIME= 23.4168 23.3567 23.7554 
PEPMASS=486.23
CHARGE=2+
56.0549 498
77.0461 495
84.0867 473
END IONS
BEGIN IONS
TITLE=Spectrum 20SHHWGYGK_01.csv DRIFT_TIME= 23.3936 146.7275 
PEPMASS=486.23
CHARGE=2+
68.0558 465
490.3756 465
END IONS
BEGIN IONS
TITLE=Spectrum 21SHHWGYGK_01.csv DRIFT_TIME= 
PEPMASS=486.23
CHARGE=2+
END IONS
BEGIN IONS
TITLE=Spectrum 22SHHWGYGK_01.csv DRIFT_TIME= 23.805 94.6016 
PEPMASS=486.23
CHARGE=2+
72.0871 456
342.1707 404
END IONS
BEGIN IONS
TITLE=Spectrum 23SHHWGYGK_01.csv DRIFT_TIME= 
PEPMASS=486.23
CHARGE=2+
END IONS
BEGIN IONS
TITLE=Spectrum 24SHHWGYGK_01.csv DRIFT_TIME= 91.383 96.6473 
PEPMASS=486.23
CHARGE=2+
357.154 367
357.1618 337
END IONS
BEGIN IONS
TITLE=Spectrum 25SHHWGYGK_01.csv DRIFT_TIME= 
PEPMASS=486.23
CHARGE=2+
END IONS
BEGIN IONS
TITLE=Spectrum 26SHHWGYGK_01.csv DRIFT_TIME= 23.338 
PEPMASS=486.23
CHARGE=2+
95.057 332
END IONS
BEGIN IONS
TITLE=Spectrum 27SHHWGYGK_01.csv DRIFT_TIME= 23.541 
PEPMASS=486.23
CHARGE=2+
53.0435 320
END IONS
BEGIN IONS
TITLE=Spectrum 28SHHWGYGK_01.csv DRIFT_TIME= 23.6574 111.8512 
PEPMASS=486.23
CHARGE=2+
83.055 313
375.6335 306
END IONS
BEGIN IONS
TITLE=Spectrum 29SHHWGYGK_01.csv DRIFT_TIME= 81.0738 
PEPMASS=486.23
CHARGE=2+
323.1585 300
END IONS
BEGIN IONS
TITLE=Spectrum 30SHHWGYGK_01.csv DRIFT_TIME= 
PEPMASS=486.23
CHARGE=2+
END IONS
BEGIN IONS
TITLE=Spectrum 31SHHWGYGK_01.csv DRIFT_TIME= 28.5768 105.0369 
PEPMASS=486.23
CHARGE=2+
67.975 286
399.2172 283
END IONS
BEGIN IONS
TITLE=Spectrum 32SHHWGYGK_01.csv DRIFT_TIME= 67.7501 
PEPMASS=486.23
CHARGE=2+
252.1613 277
END IONS
BEGIN IONS
TITLE=Spectrum 33SHHWGYGK_01.csv DRIFT_TIME= 
PEPMASS=486.23
CHARGE=2+
END IONS
BEGIN IONS
TITLE=Spectrum 34SHHWGYGK_01.csv DRIFT_TIME= 
PEPMASS=486.23
CHARGE=2+
END IONS
BEGIN IONS
TITLE=Spectrum 35SHHWGYGK_01.csv DRIFT_TIME= 72.5118 
PEPMASS=486.23
CHARGE=2+
270.2032 266
END IONS
BEGIN IONS
TITLE=Spectrum 36SHHWGYGK_01.csv DRIFT_TIME= 109.2418 
PEPMASS=486.23
CHARGE=2+
375.4575 261
END IONS
BEGIN IONS
TITLE=Spectrum 37SHHWGYGK_01.csv DRIFT_TIME= 
PEPMASS=486.23
CHARGE=2+
END IONS
BEGIN IONS
TITLE=Spectrum 38SHHWGYGK_01.csv DRIFT_TIME= 23.7564 139.4105 
PEPMASS=486.23
CHARGE=2+
54.0153 258
490.3742 248
END IONS
BEGIN IONS
TITLE=Spectrum 39SHHWGYGK_01.csv DRIFT_TIME= 59.0204 
PEPMASS=486.23
CHARGE=2+
241.1951 240
END IONS
BEGIN IONS
TITLE=Spectrum 40SHHWGYGK_01.csv DRIFT_TIME= 
PEPMASS=486.23
CHARGE=2+
END IONS
BEGIN IONS
TITLE=Spectrum 41SHHWGYGK_01.csv DRIFT_TIME= 23.1426 111.0744 
PEPMASS=486.23
CHARGE=2+
69.0406 228
375.7129 213
END IONS
BEGIN IONS
TITLE=Spectrum 42SHHWGYGK_01.csv DRIFT_TIME= 67.3701 
PEPMASS=486.23
CHARGE=2+
259.2055 207
END IONS
BEGIN IONS
TITLE=Spectrum 43SHHWGYGK_01.csv DRIFT_TIME= 
PEPMASS=486.23
CHARGE=2+
END IONS
BEGIN IONS
TITLE=Spectrum 44SHHWGYGK_01.csv DRIFT_TIME= 
PEPMASS=486.23
CHARGE=2+
END IONS
BEGIN IONS
TITLE=Spectrum 45SHHWGYGK_01.csv DRIFT_TIME= 46.6129 94.0045 
PEPMASS=486.23
CHARGE=2+
185.0273 201
368.1647 198
END IONS
BEGIN IONS
TITLE=Spectrum 46SHHWGYGK_01.csv DRIFT_TIME= 70.391 
PEPMASS=486.23
CHARGE=2+
269.1957 187
END IONS
BEGIN IONS
TITLE=Spectrum 47SHHWGYGK_01.csv DRIFT_TIME= 109.8185 
PEPMASS=486.23
CHARGE=2+
376.5972 178
END IONS
BEGIN IONS
TITLE=Spectrum 48SHHWGYGK_01.csv DRIFT_TIME= 
PEPMASS=486.23
CHARGE=2+
END IONS
BEGIN IONS
TITLE=Spectrum 49SHHWGYGK_01.csv DRIFT_TIME= 
PEPMASS=486.23
CHARGE=2+
END IONS
BEGIN IONS
TITLE=Spectrum 50SHHWGYGK_01.csv DRIFT_TIME= 23.87 
PEPMASS=486.23
CHARGE=2+
68.0201 171
END IONS
BEGIN IONS
TITLE=Spectrum 51SHHWGYGK_01.csv DRIFT_TIME= 91.5519 
PEPMASS=486.23
CHARGE=2+
373.2049 170
END IONS
BEGIN IONS
TITLE=Spectrum 52SHHWGYGK_01.csv DRIFT_TIME= 64.1365 
PEPMASS=486.23
CHARGE=2+
252.1848 168
END IONS
BEGIN IONS
TITLE=Spectrum 53SHHWGYGK_01.csv DRIFT_TIME= 23.587 74.4998 
PEPMASS=486.23
CHARGE=2+
74.1024 163
297.1189 161
END IONS
BEGIN IONS
TITLE=Spectrum 54SHHWGYGK_01.csv DRIFT_TIME= 
PEPMASS=486.23
CHARGE=2+
END IONS
BEGIN IONS
TITLE=Spectrum 55SHHWGYGK_01.csv DRIFT_TIME= 
PEPMASS=486.23
CHARGE=2+
END IONS
BEGIN IONS
TITLE=Spectrum 56SHHWGYGK_01.csv DRIFT_TIME= 23.8092 104.6146 
PEPMASS=486.23
CHARGE=2+
98.1068 154
411.2235 152
END IONS
BEGIN IONS
TITLE=Spectrum 57SHHWGYGK_01.csv DRIFT_TIME= 112.1891 
PEPMASS=486.23
CHARGE=2+
397.1838 150
END IONS
BEGIN IONS
TITLE=Spectrum 58SHHWGYGK_01.csv DRIFT_TIME= 
PEPMASS=486.23
CHARGE=2+
END IONS
BEGIN IONS
TITLE=Spectrum 59SHHWGYGK_01.csv DRIFT_TIME= 108.8987 
PEPMASS=486.23
CHARGE=2+
376.4154 147
END IONS
BEGIN IONS
TITLE=Spectrum 60SHHWGYGK_01.csv DRIFT_TIME= 71.4188 110.9654 
PEPMASS=486.23
CHARGE=2+
284.1849 144
375.9893 144
END IONS
BEGIN IONS
TITLE=Spectrum 61SHHWGYGK_01.csv DRIFT_TIME= 111.1124 
PEPMASS=486.23
CHARGE=2+
375.578 143
END IONS
BEGIN IONS
TITLE=Spectrum 62SHHWGYGK_01.csv DRIFT_TIME= 
PEPMASS=486.23
CHARGE=2+
END IONS
BEGIN IONS
TITLE=Spectrum 63SHHWGYGK_01.csv DRIFT_TIME= 114.2105 112.3624 
PEPMASS=486.23
CHARGE=2+
374.9527 137
377.9488 137
END IONS
BEGIN IONS
TITLE=Spectrum 64SHHWGYGK_01.csv DRIFT_TIME= 
PEPMASS=486.23
CHARGE=2+
END IONS
BEGIN IONS
TITLE=Spectrum 65SHHWGYGK_01.csv DRIFT_TIME= 82.2652 114.3867 
PEPMASS=486.23
CHARGE=2+
331.1368 135
377.3747 135
END IONS
BEGIN IONS
TITLE=Spectrum 66SHHWGYGK_01.csv DRIFT_TIME= 23.5046 115.8002 
PEPMASS=486.23
CHARGE=2+
86.0658 132
376.3553 131
END IONS
BEGIN IONS
TITLE=Spectrum 67SHHWGYGK_01.csv DRIFT_TIME= 35.0898 
PEPMASS=486.23
CHARGE=2+
131.0118 130
END IONS
BEGIN IONS
TITLE=Spectrum 68SHHWGYGK_01.csv DRIFT_TIME= 
PEPMASS=486.23
CHARGE=2+
END IONS
BEGIN IONS
TITLE=Spectrum 69SHHWGYGK_01.csv DRIFT_TIME= 98.4483 114.3408 
PEPMASS=486.23
CHARGE=2+
373.1537 119
376.9954 119
END IONS
BEGIN IONS
TITLE=Spectrum 70SHHWGYGK_01.csv DRIFT_TIME= 
PEPMASS=486.23
CHARGE=2+
END IONS
BEGIN IONS
TITLE=Spectrum 71SHHWGYGK_01.csv DRIFT_TIME= 27.7153 105.1637 
PEPMASS=486.23
CHARGE=2+
56.9705 116
376.9965 116
END IONS
BEGIN IONS
TITLE=Spectrum 72SHHWGYGK_01.csv DRIFT_TIME= 106.4432 
PEPMASS=486.23
CHARGE=2+
377.7973 110
END IONS
BEGIN IONS
TITLE=Spectrum 73SHHWGYGK_01.csv DRIFT_TIME= 105.4936 
PEPMASS=486.23
CHARGE=2+
376.4346 109
END IONS
BEGIN IONS
TITLE=Spectrum 74SHHWGYGK_01.csv DRIFT_TIME= 115.6991 
PEPMASS=486.23
CHARGE=2+
376.0208 108
END IONS
BEGIN IONS
TITLE=Spectrum 75SHHWGYGK_01.csv DRIFT_TIME= 
PEPMASS=486.23
CHARGE=2+
END IONS
BEGIN IONS
TITLE=Spectrum 1VGDANPALQK.csv DRIFT_TIME=16.2986 16.2867 16.1969 16.221 16.2803 16.2266 16.479 18.083 16.221 16.2856 18.5381 16.4646 18.5629 17.9249 16.4688 18.5619 18.2201 18.405 16.2325 16.5298 16.6527 16.3645 16.3223 16.381 16.4124 16.4313 16.5157 19.5234 16.6696 19.2908 16.6162 19.2565 16.3084 16.637 17.1668 16.4673 18.5374 18.9343 18.659 19.2645 16.9434 20.7842 16.9061 16.4999 16.6785 16.9171 16.5821 19.5313 16.9119 18.6965 20.2154 17.028 19.3177 16.9681 18.4368 17.0777 20.3211 16.8214 19.8753 17.5466 17.2405 19.333 17.7354 20.5123 17.6479 20.2422 19.4796 17.2441 21.0048 22.0163 19.1314 17.5347 18.489 17.1963 18.2018 17.8747 20.9355 17.9324 20.5482 17.0726 21.489 19.1494 18.0512 18.3763 18.5727 18.4169 20.2837 20.0714 21.9398 20.2279 22.0534 19.9199 19.1543 18.3821 19.1408 20.9872 20.3697 20.5019 21.6813 21.1917 21.7605 21.6276 18.6791 21.1693 18.9852 21.5256 19.1304 24.1784 20.1775 23.375 21.6531 20.1618 21.4228 22.7532 22.6275 21.9849 21.3043 20.6672 26.0803 20.9016 22.0763 25.6996 22.0721 21.2097 22.1249 21.9196 25.331 22.1032 23.2282 23.539 23.4486 24.0864 23.0685 22.8728 27.9797 22.1795 28.1939 22.8404 26.7431 23.8183 23.947 22.6427 28.598 27.6233 22.6314 24.0606 24.3947 25.9649 26.1811 24.1859 24.6355 28.6341 25.8753 29.7593 27.8757 27.8418 30.1731 25.6181 27.5011 29.3956 29.1725 28.4741 29.2788 27.8686 25.8041 25.5373 25.4657 25.6644 25.5688 27.9096 25.0708 27.2492 39.2064 26.0763 28.7159 30.3439 28.9894 25.2087 28.6244 34.4549 29.8216 29.6049 31.013802 34.0873 28.2921 27.9922 30.0116 27.2274 29.9894 27.0956 30.1319 29.1615 29.3694 26.3896 29.6512 29.1018 33.5226 30.4015 26.0468 31.9566 30.9447 31.6408 31.8316 33.778 31.5727 30.056 31.324402 30.1796 30.5142 32.0026 32.0561 30.3495 41.3313 27.6939 33.1179 41.6055 33.5957 31.9301 34.9885 29.2991 27.7201 30.3154 31.9096 30.7503 33.6124 30.4632 31.9346 30.6849 30.5415 32.7857 30.7273 35.4874 35.4332 31.8469 36.6766 32.2448 39.2317 41.8736 33.9416 34.7044 34.9947 28.9413 34.7116 34.131 42.8434 35.1181 36.4193 29.3949 31.135002 32.1818 31.0009 31.3623 32.6752 33.5942 30.9164 30.8814 39.9195 31.075699 36.1214 31.1507 38.9319 36.039 37.3482 37.4875 34.6909 35.0379 35.0592 46.1057 49.7819 37.1093 37.8571 48.3903 37.9983 33.045 39.3564 43.5477 37.9867 45.1424 31.756798 37.4056 37.8833 39.2745 39.5343 39.3563 42.859 43.8081 39.9142 35.0044 45.964 40.6548 35.2884 39.8358 50.2686 37.0836 41.8106 49.7034 42.7469 34.6463 44.1569 35.1269 35.207 35.1606 45.7033 35.2975 35.5677 36.4299 37.9804 50.1086 44.6771 40.0013 44.128 40.6982 41.7666 40.6566 44.4854 45.6586 46.9047 36.1853 45.1531 36.1826 50.5451 44.7905 36.0364 47.8318 46.8916 45.1123 47.6367 50.3089 50.1139 49.8936 50.5977 36.7947 43.2922 51.2768 43.1447 49.2601 43.0626 49.9497 53.7601 43.4869 52.6435 43.1704 43.0431 42.0706 48.6813 54.0265 60.501 54.0886 54.913 52.0309 56.4167 53.7242 49.0635 48.4015 53.6623 52.8199 47.92 43.2287 56.2062 43.3631 43.3037 42.4617 50.0061 50.2342 49.1454 58.8197 57.2928 56.1383 51.8946 52.3394 60.1637 46.8497 46.7647 61.0544 51.8323 59.5417 53.4087 63.1008 63.563797 54.3628 50.351 60.2161 42.4335 55.9439 42.8527 42.7359 59.1029 58.6397 52.4868 54.6393 55.1654 55.4055 64.455 53.6943 57.6762 43.0057 58.615 62.0667 58.2316 57.413 62.7398 55.2813 58.7054 59.6233 59.4431 69.9793 70.7704 52.5482 60.6708 52.447 52.3149 61.2258 64.2128 65.3988 66.1954 61.984 62.1654 64.2626 45.4505 56.9856 61.4681 62.2775 62.7463 63.6024 63.257797 63.6063 62.7854 64.7858 70.3338 70.8174 60.8707 71.4088 64.2305 67.3673 68.7084 101.3594 71.6625 77.3538 100.6417 79.3497 50.4504 65.3679 50.4218 65.3181 69.1609 50.1114 67.1826 75.5154 77.4458 76.8194 74.7241 72.2144 73.245 78.5924 71.424 67.6819 66.8712 68.9138 71.3208 74.0145 73.9015 82.2091 82.1346 83.6413 72.766 75.9993 53.431 76.3405 76.1114 74.842 75.1258 87.4458 79.0387 88.2068 87.5029 88.1399 78.2018 81.3489 87.1578 87.4283 81.1443 81.8083 80.0809 79.7834 76.6469 81.1567 97.263 68.0224 84.1182 92.3173 85.9765 83.4005 83.9663 86.4972 82.7713 90.9918 90.9015 88.7556 87.9104 87.9302 89.1856 88.2968 88.775 84.8261 90.7457 91.0002 90.2 93.8077 92.8446 94.1092 92.828 98.9547 99.945 93.8908 102.2717 96.2783 103.4268 100.9891 102.9628 101.7432 101.8418 100.3517 101.5191 102.434 102.9461 98.076 102.5607 102.2309 114.0567 109.2883 109.3313 108.2933 109.8643 113.7512 114.6036 114.4684 112.8823 122.1143 119.5144 125.811 117.0686 110.7349 115.6613 116.3564 111.3191 110.212 109.8335 114.3389 121.1378 113.7076 117.6604 110.0323 118.7225 114.6467 115.6978 120.4143 119.6838 129.9886 124.6643 110.1647 121.3597 124.8847 117.3477 119.5523 131.742 130.4699 135.1651 136.0279 137.9276 145.2647 135.9228 143.1108 145.7995 142.1787 139.0762 148.0584 150.794 149.7934 
PEPMASS=506.7775
CHARGE=2+
101.0939 493
101.1296 352
102.0773 188
104.0934 1318
110.0937 12226
111.0983 1083
112.1076 231
113.0169 171
113.0961 207
114.0801 346
114.9775 5680
115.1119 188
115.9815 429
116.0276 195
116.0956 193
116.9747 805
117.0124 964
118.9726 345
119.0765 529
120.1068 3616
121.1113 384
122.1075 3357
123.1097 197
124.0652 193
124.1042 391
127.0779 586
127.1152 161
128.9958 649
129.1299 5014
129.9913 731
130.1142 4459
130.9926 159
131.0992 331
131.1186 432
131.1453 355
132.1104 236
132.9926 2418
133.9961 179
134.9881 375
135.9943 242
136.1053 3383
136.9616 730
137.1092 348
139.1196 170
141.0971 472
141.1326 1702
144.1127 376
144.9952 1039
145.0938 486
145.9935 153
147.0064 207
147.144 2121
148.0051 258
148.1483 207
151.0075 287
154.1568 256
154.976 798
156.1137 244
157.0413 255
157.1301 1244
158.1275 717
159.0135 427
159.1242 1560
160.0619 359
160.1265 226
162.0226 231
163.0106 523
163.1331 329
164.0384 166
166.9054 246
168.0327 203
169.0935 259
169.133 2808
170.0963 258
170.1375 404
171.1199 243
172.0121 988
172.1128 485
172.9883 281
173.0931 734
174.9928 258
175.123 1079
175.1568 1885
176.1231 170
179.132 586
181.1354 709
182.0517 151
183.1895 1873
184.0154 152
184.1903 214
185.2055 169
186.1249 416
186.1657 920
187.111 563
187.1486 469
190.0265 555
190.1272 855
191.1294 219
193.0077 11408
193.1398 208
194.0119 2421
195.0049 4194
195.1189 1621
196.0079 323
196.1183 224
197.0023 1051
197.1416 217
198.0339 580
198.1292 337
200.1827 415
202.0292 1249
202.1519 223
204.0441 1521
204.1779 3894
205.1818 446
206.0089 186
207.131 288
209.1365 1170
210.1242 168
210.1387 133
211.0222 8165
211.19 237
212.026 1587
212.1495 452
213.0196 3003
214.0215 235
214.2034 168
215.0174 732
216.0467 678
216.1477 240
217.1425 442
218.1306 339
219.0059 377
220.0375 266
220.951 320
221.1433 730
221.9466 316
223.1631 133
223.9372 215
224.1554 211
225.1468 313
225.954 290
226.1242 253
228.1409 164
229.0374 393
232.0252 330
234.1509 191
235.1572 4904
236.1605 884
237.0191 118
238.1342 162
238.9702 157
239.1646 917
239.2022 407
240.1856 670
241.1864 142
242.2032 154
244.1455 540
245.1454 247
245.9506 2052
246.9501 124
247.1814 445
247.9474 572
248.1845 142
249.1519 1500
250.0413 5188
250.1549 185
251.0447 651
252.0395 851
252.1782 189
254.038 277
254.1692 225
254.2434 157
255.0644 238
256.143 345
257.2161 2609
257.9921 369
258.0365 578
258.0689 242
258.147 156
258.2011 3907
259.2045 593
259.9699 268
260.2548 187
262.0501 289
263.0394 380
263.9658 3162
264.0618 496
264.9702 179
265.1926 185
265.9631 942
266.1741 661
267.1654 2245
268.0574 610
268.1723 395
269.1839 249
269.9879 148
270.0325 163
270.0549 142
270.1628 128
272.0181 250
272.1822 3336
273.1857 660
275.1791 497
275.2316 3003
275.9679 3130
276.236 436
276.976 519
277.9721 1181
280.0157 235
281.1621 233
281.9793 1743
282.2413 896
282.9842 169
283.2019 1508
283.2451 144
284.2022 447
284.9617 127
285.9826 233
286.8605 353
288.0073 508
289.0614 2587
289.9858 1789
290.06 455
290.2071 115
291.0594 405
291.983 487
293.9826 3103
294.9938 529
295.1702 396
295.9819 958
296.2137 1338
297.2184 499
298.0367 164
298.202 286
299.0372 308
299.2736 745
300.2175 175
300.9944 4971
301.1804 753
301.9963 245
302.0287 161
302.1874 110
302.9929 476
303.2141 174
303.9968 162
304.2323 115
304.8756 623
307.0728 13957
308.0013 1443
308.0798 1808
309.075 1431
309.9999 458
310.9548 130
311.0742 202
312.0032 511
312.2208 338
312.9138 178
313.1823 475
313.9934 175
314.2063 122
315.0207 121
315.2343 1020
316.2418 178
319.0108 3697
320.0119 292
321.0111 334
321.28 244
323.2957 1749
323.9855 332
324.214 1581
324.2968 304
325.2234 320
326.021 260
326.2128 249
326.2667 192
327.2007 242
328.2634 224
330.9184 156
333.029 134
335.0201 297
336.9796 2211
337.2216 217
337.9805 178
338.1857 229
338.2513 374
338.9815 709
339.0515 136
339.2795 130
340.2021 345
341.057 171
341.2136 379
341.3126 1026
341.9973 653
342.2298 155
342.3157 187
343.2334 507
343.9832 231
344.2293 328
345.0286 29538
346.0359 3878
347.0279 3821
347.304 340
348.0313 156
349.0257 292
349.101 148
353.0337 159
353.2965 373
354.2541 256
354.9951 450
355.2096 151
356.9965 113
358.2133 947
359.2079 145
360.2467 185
361.2604 935
362.245 211
363.0448 4876
363.2338 359
364.0487 524
364.1953 116
364.241 142
365.0429 519
367.2775 1704
368.2783 468
369.2278 395
370.2513 176
371.3163 179
376.2538 1779
377.2604 378
379.2769 367
379.9606 182
380.0678 815
380.2775 194
381.0148 6453
381.2476 657
382.0191 785
382.252 219
382.325 517
383.0121 2519
383.3256 148
384.2364 278
385.0075 137
385.099 125
386.2454 402
388.3386 4011
389.2663 186
389.3439 1007
390.3464 127
391.259 166
392.3108 124
393.2226 132
394.2527 289
395.2457 180
396.311 581
397.3051 236
398.2551 315
399.0288 4773
399.3162 109
400.0355 511
401.0305 1864
403.024 145
404.2537 3453
405.2582 777
406.2647 125
409.2535 201
410.3275 1996
411.3289 629
412.2752 792
413.2757 200
413.3453 117
417.0006 514
418.9986 355
421.3149 618
422.2572 131
422.3204 167
423.2567 139
424.3094 2839
425.3138 645
426.296 239
427.0683 108
428.3394 611
428.935 3747
429.3005 298
429.9454 255
430.9342 343
435.248 252
436.2843 133
438.2577 454
439.2716 180
440.2742 913
441.2777 419
442.3636 202
443.0207 353
443.2824 150
448.9433 127
450.2639 230
450.3307 257
452.2775 196
453.2686 411
454.3277 229
455.2848 443
457.3013 925
458.303 659
459.2978 123
459.3936 1331
460.3967 407
461.122 578
461.3002 273
462.1256 117
463.114 123
464.2861 137
465.281 118
467.3599 317
468.3509 187
469.3026 682
470.3002 357
471.3217 157
473.972 360
475.1408 186
475.1603 275
475.3277 1531
476.3218 496
477.3239 119
481.3071 227
482.3012 166
483.2888 265
486.3001 121
490.3645 305
491.3719 125
494.3034 138
496.3682 185
498.3432 187
500.3019 176
503.3874 101
506.586 785
507.3649 172
507.4393 622
507.5864 333
508.4475 231
508.9576 1369
509.3113 1032
509.9603 166
510.3079 287
510.3464 238
510.9532 542
511.3468 195
511.4547 181
516.353 373
517.3399 131
518.331 483
519.3209 136
524.3938 221
524.4021 246
525.3856 244
526.3413 1538
527.344 559
529.3482 312
535.3013 201
537.355 165
538.3496 112
538.4558 288
539.4401 717
540.4346 219
544.3452 452
546.3775 7209
546.9153 128
547.3803 2597
548.3753 440
553.3149 188
554.3865 227
556.4603 9572
557.3458 143
557.4679 3784
558.4736 819
559.4762 162
562.3742 314
565.3829 243
567.4086 756
568.3981 353
582.413 446
583.4161 221
590.373 898
591.3804 402
592.3443 127
592.3957 164
593.4303 380
594.0718 141
594.4197 192
594.4325 257
595.4289 137
597.4056 118
601.3843 264
606.3543 126
608.3957 234
610.4297 2124
611.4382 1013
612.4375 291
619.4029 255
620.4067 135
621.4409 154
622.4142 662
623.4188 249
625.433 336
629.3913 218
639.4497 1416
640.4486 526
641.4562 138
642.4624 212
647.4077 1609
648.4098 584
648.4116 505
653.5003 426
654.4526 221
654.4624 172
656.4728 142
659.4895 2608
660.4872 1057
661.4877 300
665.4239 262
670.5319 2405
671.3979 297
671.5356 968
672.4052 134
672.5332 311
681.4532 156
681.5098 181
684.4701 302
722.4575 518
734.4658 398
735.4527 144
738.5059 199
739.5213 309
740.5028 139
741.5822 1703
742.5909 743
743.58 290
747.5158 1434
748.5173 648
748.5177 571
749.5103 209
750.5005 220
751.4921 330
752.4912 259
756.5589 3500
757.5626 1526
758.564 453
764.4799 281
764.4812 303
765.4879 172
767.5251 394
767.5336 332
768.5493 195
769.5129 162
770.4976 193
781.5134 485
782.506 663
782.5128 353
783.5018 289
784.5013 178
784.5034 215
799.5185 414
799.5237 658
800.5173 279
802.5999 143
810.5022 268
856.638 1474
857.6427 731
883.5881 367
883.6127 314
884.6001 283
884.6135 263
895.6366 305
896.6442 529
912.6253 259
913.6617 4245
914.6699 2470
915.6762 802
END IONS
BEGIN IONS
TITLE=Spectrum 1VLDALDSIK.csv DRIFT_TIME=17.6202 16.187 16.2544 17.9023 16.3019 16.4954 16.4337 17.4934 16.2947 18.237 16.3914 16.7747 16.4157 16.224 16.5184 16.8143 16.7596 16.6513 19.3668 17.983 16.5274 17.8549 16.7331 19.139 18.999 19.2102 17.0406 19.143 16.8655 16.7979 18.5998 16.8851 17.0041 19.6691 19.638 19.2428 19.2194 19.1757 17.9072 18.4124 16.7241 17.8568 17.8141 19.4521 17.2431 18.8255 17.0094 17.0905 20.3949 20.8585 21.9648 19.3311 19.6383 21.7506 19.1769 19.2935 21.0052 17.6935 19.0948 18.2754 18.164 20.5889 20.6222 17.9428 20.2403 21.33 21.6128 21.7623 18.7024 19.6478 22.3774 22.3558 21.8962 18.2583 22.3194 21.177 16.347 20.0253 23.5972 20.1394 20.0788 24.1065 19.955 20.0285 22.6255 21.9303 22.3927 21.4643 19.4138 21.3107 24.9746 21.3729 21.2094 22.1623 23.4698 19.9315 19.6225 24.8065 19.8521 20.0028 19.7323 23.719 19.4515 22.9887 24.9498 26.1173 22.5036 24.8472 23.5649 25.9682 30.3146 25.3732 25.6799 26.3322 26.0179 26.2071 26.1756 19.7632 24.6478 24.9647 29.2937 25.5408 27.3897 22.1976 21.8879 31.1824 22.0223 22.0732 29.0627 22.78 21.8782 25.5339 30.2993 25.3643 29.831 26.2995 25.7824 32.1303 31.024399 27.5978 27.8972 23.832 23.6808 21.1264 34.0002 23.7573 21.731 34.3267 23.732 23.7087 23.4162 21.4802 27.3389 28.3054 31.980698 26.5129 33.7653 30.5426 27.509 33.691 31.586998 35.4181 24.0313 23.5949 23.5624 23.6303 28.1196 23.9301 23.4521 27.7158 33.2622 23.9894 29.1155 37.5859 31.459198 28.9571 32.3479 27.4554 37.2899 30.43 30.4633 33.5069 31.9823 44.8337 23.9591 35.282 29.3255 38.2039 40.0018 32.6799 39.7386 38.9718 24.8198 41.2924 29.0779 25.7659 27.4871 29.8418 31.2928 30.9751 28.995 31.351501 40.4767 39.8164 39.9612 37.6967 42.5664 41.8526 29.0491 37.0703 27.3991 40.022 29.096 36.0134 37.4002 28.7443 44.7126 43.5226 35.8524 42.5175 29.1552 36.9565 43.9968 38.8367 28.6473 35.4972 44.4556 35.4868 29.8237 34.319 45.0915 45.3046 44.7092 36.903 47.99 32.7033 48.6152 40.2903 37.6884 33.9052 50.2607 36.2048 45.3526 54.1472 45.0655 54.0449 48.9657 39.8372 49.693 43.8746 52.3876 32.9071 52.7943 36.9567 43.7661 43.8828 42.7915 57.1675 56.3315 33.2412 51.146 51.3061 47.0483 49.8443 56.7363 52.0936 37.5918 51.8758 44.9281 55.3055 59.1554 44.1576 50.059 57.3274 49.2066 53.2321 58.4456 53.0318 55.8686 42.0834 55.7915 55.4619 40.4527 59.2171 58.053 58.5054 58.1282 58.2113 59.3296 57.4013 39.485 38.5358 61.599 62.9059 59.8379 54.1764 59.378 52.8107 61.3727 62.3098 59.7975 64.2593 47.8287 69.1425 65.7119 61.7536 60.3303 60.5749 62.0682 61.8996 63.222 62.122 61.3442 67.4601 69.7825 46.6382 66.0384 66.9242 66.6853 68.9178 70.3947 68.4572 65.8107 65.8355 65.2035 76.4378 77.8703 80.9496 64.706 70.3651 80.464 46.1521 69.925 71.9225 71.9373 71.6063 71.9176 68.1883 68.0391 68.1742 73.1061 77.7077 76.0238 80.6051 84.6815 80.7145 82.2474 82.8992 82.3576 82.885 89.6793 85.4917 82.3769 84.6375 87.3095 87.0658 87.5213 85.3905 82.0347 88.1093 87.5443 68.7503 88.1715 88.2978 88.7224 90.7721 92.2129 91.7982 98.3903 103.1562 103.9641 101.3879 104.9435 108.0848 109.8017 114.797 113.4056 114.3228 119.1495 122.9103 122.8143 121.0807 124.7653 129.1185 121.5879 137.0764 152.3795 153.0227 149.1791 146.24 
PEPMASS=487.2845
CHARGE=2+
102.994 213
104.0939 470
110.0952 424
112.0326 728
112.1358 209
113.0959 184
114.0818 461
115.02 1194
116.0599 529
117.0138 579
119.0751 151
120.1078 170
122.108 1023
124.0654 243
127.0779 601
127.1153 314
128.137 215
129.131 1450
129.9931 669
130.0487 294
130.1159 3013
131.034 268
131.1167 288
132.9905 3896
133.9921 345
134.9876 3957
136.1064 1206
136.9846 314
138.1222 276
141.0969 346
142.0496 220
145.0924 350
147.1457 1799
148.0063 236
149.9987 145
151.0048 1630
152.0368 313
153.0025 1735
154.1558 269
155.0017 142
155.1152 349
155.1532 392
156.1383 304
157.0406 198
157.0936 169
157.1684 790
158.1296 425
159.1121 2607
160.0642 2389
162.03 201
166.9064 10816
168.0345 152
170.0517 188
170.899 353
171.0159 144
171.1851 176
172.013 597
173.0917 236
173.1687 644
175.111 340
175.1578 1313
178.0786 1206
182.0566 138
183.1181 198
183.1543 544
183.1915 896
184.1955 127
184.9214 1695
185.0982 546
185.169 750
185.206 1632
186.0303 343
186.2115 228
187.1142 1634
188.025 146
190.0277 287
191.0109 289
195.9376 16701
196.0474 131
196.9421 572
197.9363 274
198.0346 286
199.9312 693
201.1314 261
201.1681 917
202.0293 476
202.1718 125
202.9334 230
203.1123 755
204.0465 1026
204.9338 225
205.0459 210
206.0432 200
206.0808 168
206.1424 138
207.1209 140
211.1201 143
213.2101 508
213.9517 9506
214.9531 322
215.9543 159
216.0472 343
217.9484 271
220.0377 180
222.9489 139
223.937 15731
224.1549 977
224.9441 1103
225.1578 177
225.9389 408
226.1279 140
227.1881 600
227.9314 750
228.145 138
228.188 156
229.1686 2888
230.1727 400
231.9682 1809
232.0297 717
233.0289 266
234.0022 647
234.0241 271
237.1788 308
241.9521 34728
242.1011 428
242.2414 220
242.9584 4078
243.9547 1362
244.2208 291
244.9539 265
245.9478 2277
250.0439 2806
250.2049 113
251.0489 642
252.0194 1912
252.1529 178
254.0362 313
254.2072 207
255.1925 255
256.1494 301
258.8603 153
258.9731 201
259.9213 19674
259.9643 10674
260.2554 2534
260.9293 1797
260.9736 1159
261.2568 354
261.9195 21751
262.9255 1026
263.9194 1938
263.965 643
264.0655 276
265.9985 131
266.9494 216
268.0582 320
269.9884 1221
270.0361 859
270.1682 256
270.2045 227
271.1915 158
272.2225 176
276.9915 119
277.9363 21453
278.9437 2210
279.9332 22006
280.0237 313
280.9404 1057
281.9348 2385
282.0431 250
282.2084 315
283.9735 919
284.0199 245
284.2567 183
284.9652 359
286.8608 1916
286.9625 110
288.0054 4352
288.222 253
288.8567 183
289.0628 198
290.09 434
292.0652 125
294.2482 207
295.9536 5526
296.2312 114
298.0415 107
298.2083 1046
299.2106 181
300.1492 753
300.222 1658
301.2188 315
301.987 309
302.2211 164
304.8761 2825
304.9609 146
306.0204 4914
306.8705 298
307.0789 3425
308.0823 478
308.9284 116
309.079 408
312.2629 314
316.2223 1285
317.2188 200
318.1654 526
321.2289 617
322.2284 113
322.8902 2206
323.9843 930
324.0374 175
324.2246 131
324.8926 264
325.9831 175
326.0731 336
326.9325 168
328.2593 1070
329.2882 560
334.0168 944
338.26 415
340.9085 254
341.999 1201
342.2389 297
343.1919 158
343.893 125
343.9851 281
344.2273 214
345.034 1154
346.7628 155
347.0285 133
347.3045 6872
348.3109 1505
349.3134 271
352.0311 645
355.2775 213
355.9257 144
359.2755 206
360.2159 215
361.9495 446
361.9845 220
362.2381 148
363.0493 120
363.2361 154
367.3206 190
368.0888 124
368.3018 250
369.2585 1060
370.0012 507
370.2658 297
371.1988 449
371.3037 108
373.944 143
379.2737 408
379.9631 1212
380.0676 125
381.0199 239
383.0188 180
383.3127 269
385.3369 240
385.9463 146
387.2739 1137
388.277 239
389.2183 515
391.3223 147
393.2933 134
397.2552 418
397.9787 351
398.2684 145
399.0363 213
399.3173 250
401.3251 209
405.0708 105
409.1043 939
411.3127 285
413.0953 115
413.261 325
413.3375 240
414.2582 105
415.2753 3491
415.9429 193
416.2765 707
417.284 212
418.0289 766
421.3221 149
422.2981 261
423.3112 121
426.3314 103
427.317 113
429.3358 131
431.2751 312
433.9563 287
437.8311 129
439.3261 521
440.3368 123
442.3173 141
443.0284 215
444.3446 642
445.0856 116
445.3327 293
446.3387 113
447.3647 110
452.3401 141
453.2942 111
454.3649 212
455.3576 181
456.3154 368
457.2998 588
458.2996 172
462.358 5559
463.3635 1550
464.3652 365
466.304 271
467.2829 152
467.3742 264
472.3766 299
472.9777 119
474.3302 327
478.3432 180
479.3386 320
480.3445 150
482.3709 497
483.3648 389
484.3114 2777
485.3132 791
486.3173 166
487.472 862
488.4718 265
489.4209 2443
490.171 115
490.3667 270
490.4306 566
490.9882 212
491.3774 190
496.3613 3809
497.3697 967
498.3689 171
500.38 178
502.3249 4011
503.3342 1024
504.3462 159
510.3704 228
528.3853 556
529.3931 169
551.3984 165
552.3923 155
553.3954 424
554.3992 156
557.4602 197
563.389 115
569.4177 488
569.4279 255
570.4089 239
570.4219 246
571.4213 140
575.4686 2260
576.4719 812
577.4841 183
579.4207 492
580.4074 370
587.4376 366
588.4375 161
594.0704 333
597.4288 7189
598.4358 2342
599.439 433
607.4285 162
615.4403 738
616.4446 258
628.5043 158
646.5228 3422
647.5305 1409
648.5302 297
682.5369 126
692.5263 426
693.5325 243
710.5424 2328
711.5434 922
743.5671 571
744.5593 469
761.5697 7919
762.5755 3771
763.583 906
763.5855 919
764.5726 166
764.5921 194
807.6087 419
874.6809 2345
875.6893 1273
876.6914 451
877.6908 142
END IONS
BEGIN IONS
TITLE=Spectrum 1YAAELHLVHWNTK_mz791.csv DRIFT_TIME=15.9011 15.920601 15.882 16.0032 15.937599 15.654301 15.8881 15.910301 16.0877 16.1285 15.9368 16.1882 16.1034 16.1134 16.111 16.1464 16.011 16.1138 16.1908 16.4903 16.068 16.1102 16.2375 16.2329 16.1984 16.3305 16.1861 16.2834 16.5631 16.3192 16.4594 16.4882 16.3175 16.4277 16.4229 16.8706 16.5081 16.4201 16.6152 16.751 16.8845 16.8502 16.4085 17.1963 16.897 17.9745 16.9222 17.1119 17.7402 17.1933 18.3811 17.5637 17.7905 17.9151 18.9737 18.215 18.7413 19.9359 20.0532 32.8878 20.9444 25.9577 25.4967 22.4441 21.968 26.0876 26.1783 34.9353 25.7546 25.5069 23.9142 29.7046 30.7891 27.7393 26.759 27.0421 31.271698 27.1915 32.1333 33.0331 28.8261 28.8639 33.5711 27.1156 35.2723 33.4784 32.6118 30.0369 35.3727 35.0806 31.921501 31.913002 31.834702 31.938301 45.0394 31.8279 37.0449 44.8815 37.3167 37.5377 37.1666 33.5878 33.7036 41.5915 46.9758 48.813 34.8104 44.1324 37.1004 37.1411 45.6467 46.86 46.9061 38.2953 38.2163 38.4159 38.6689 38.2184 49.4071 38.0706 39.7863 38.4683 48.2564 46.7052 52.2904 52.9016 48.8859 60.7194 51.0647 58.7624 49.7782 50.941 56.0234 41.5537 48.2209 49.4128 50.1697 53.0029 52.6902 52.2118 44.274 43.9956 44.2021 43.3592 44.9637 56.0293 60.1671 56.0229 42.1127 54.8138 43.1126 42.45 45.4582 45.2765 45.7256 48.1739 47.7657 48.1263 47.6631 64.7816 47.7284 47.6563 46.2655 66.323 47.0198 50.3265 50.1206 50.545 72.4802 50.1773 69.6708 69.3052 69.2041 66.7924 50.8841 67.9773 69.4067 50.0655 71.1944 70.9725 52.335 69.8132 51.0253 51.5446 51.4473 52.4702 72.7726 56.3393 79.9439 54.5508 60.5191 59.3271 92.9604 83.6445 82.3201 83.7805 86.0626 105.5883 99.7681 100.2291 98.2646 115.3571 95.4528 91.0884 90.4962 91.5723 102.0823 100.2215 103.1979 77.6308 124.2859 123.3984 120.784 127.720795 146.319 141.5895 
PEPMASS=791.415
CHARGE=2+
55.0647 188
56.0592 611
57.0446 359
70.0765 1269
72.0927 742
74.0717 182
83.0734 241
84.0581 577
84.0939 1578
86.11 650
91.0687 447
98.9904 188
102.0719 483
104.0855 858
110.0878 1722
119.0702 308
120.1001 580
122.0993 2121
129.1219 758
129.9851 263
130.1076 482
132.1004 205
136.0966 5769
137.0997 613
143.1031 380
147.135 289
154.1458 498
159.117 1162
160.0541 180
162.1178 326
171.1768 261
172.0033 403
173.1142 226
175.146 279
187.1752 181
198.0224 191
199.1384 469
201.1185 483
202.0159 668
204.0325 842
207.1445 1754
208.145 192
210.0601 822
215.1745 176
216.0344 340
223.1897 366
227.1395 433
228.1544 197
230.1861 362
232.0129 179
234.1647 166
235.1445 1945
236.1471 305
237.1701 165
243.1804 131
248.2002 1577
249.2032 274
251.1895 560
273.1694 139
283.307 160
284.1543 147
294.2593 242
295.2454 145
296.1951 248
301.1693 138
306.1935 574
307.1871 117
309.3308 128
312.268 256
314.2213 204
319.1012 268
323.2765 142
340.2435 345
343.2107 161
344.246 204
345.2296 452
350.2733 506
355.0869 225
355.2528 123
357.305 358
362.2591 2052
363.2631 385
364.2955 158
374.0294 142
378.2714 149
380.256 238
385.2651 136
391.0629 141
407.2626 596
408.2567 195
409.072 5336
410.0793 781
411.0673 593
422.1905 1484
422.3636 338
423.1965 222
423.2851 229
423.3616 110
435.256 1336
436.2609 358
438.26 272
440.2037 175
445.0574 396
451.3049 265
453.3408 141
463.3829 127
466.1092 120
477.3057 137
481.0401 542
482.0397 166
486.2739 108
487.3522 362
490.3389 237
499.0434 12670
500.0517 2721
501.0453 3318
502.0543 567
503.0378 796
503.3434 170
504.063 222
506.0742 108
508.0789 163
511.3656 187
513.3408 152
520.3567 375
521.373 128
522.3477 226
524.4021 158
525.3607 107
525.4038 121
530.3508 166
531.3475 179
536.3861 187
538.0791 168
539.3185 112
547.167 834
548.1617 139
548.3699 2128
549.3725 682
550.3814 144
556.0845 640
557.0762 154
558.0751 274
559.0718 120
560.077 193
564.3971 185
564.4141 221
566.4131 150
571.0473 162
572.3357 105
576.0219 424
577.0054 144
594.0296 15343
595.0351 2590
596.0329 1521
613.1071 1213
614.1163 220
615.0997 222
617.0976 127
627.4185 156
630.0173 1204
631.0107 235
631.9992 610
632.4536 279
634.0172 211
651.0609 3507
652.062 514
653.0629 373
653.5094 118
655.0637 121
657.4482 527
658.4394 209
663.4818 152
667.4357 188
667.9751 203
668.4242 257
673.471 159
684.0118 211
685.4435 2654
686.4462 1108
687.0429 946
687.4461 298
688.041 123
689.0192 788
690.0214 214
691.0101 195
705.5126 154
725.0023 173
734.546 129
741.0347 365
760.9728 179
762.9737 116
770.5411 281
784.5359 1120
785.5341 500
786.5469 169
787.5235 205
790.7088 125
791.6684 503
792.682 237
793.6774 360
793.7509 153
795.6658 301
798.5405 622
799.5385 325
800.5505 197
897.6243 1380
898.6296 826
899.6276 255
922.166 118
1034.7084 1230
1035.7087 733
1036.709 266
1036.721 260
1147.8153 303
1148.8242 227
END IONS
BEGIN IONS
TITLE=Spectrum 1YGDFGTAAQQPDGLAVVGVFLK.csv DRIFT_TIME=11.2894 11.0708 11.1495 11.3452 11.2621 11.1312 11.3596 11.3537 11.394 11.241 11.2249 11.1512 11.3683 11.4485 11.3479 11.3924 11.332 11.4024 11.4466 11.3276 11.4431 11.4704 11.452 11.7623 11.5711 11.5771 11.7362 11.7586 11.7165 11.7283 11.8688 11.7976 11.7986 11.8816 12.0325 12.0923 12.5461 13.0232 14.1426 15.354 15.652 17.6197 16.0692 16.2075 17.997 18.8381 19.5018 19.3661 23.0776 20.5703 21.7125 21.4959 21.3042 20.1769 24.0131 23.7019 24.7418 24.1321 25.8592 27.134 27.4592 23.9368 24.6757 26.6495 25.2045 26.4215 27.2137 28.2999 27.0234 28.3459 28.0946 29.1974 29.9299 28.9118 28.5159 29.9858 24.7886 30.1968 30.3355 30.0998 30.8356 31.309402 31.854797 30.8811 32.1125 26.911 32.3027 27.0518 28.8136 28.036 39.4625 32.8322 33.443 35.6245 33.6969 37.2108 34.8297 37.3083 33.2541 34.1675 34.9656 35.1252 35.3232 35.3417 35.7705 36.5548 36.8568 36.5129 36.2884 37.5211 31.2756 31.107101 36.5312 31.115501 37.0787 31.174599 31.0363 37.2252 42.0385 42.2065 37.0078 41.6688 38.0333 32.7985 39.2365 39.7337 39.2279 39.145 39.2007 33.8271 39.6245 33.7636 41.5873 40.5348 40.5993 41.3092 39.8195 38.9622 41.3063 41.5062 34.1325 43.7457 34.2577 43.0859 34.0594 35.0571 34.7015 42.5299 40.8765 41.7741 42.053 43.4097 43.8186 46.6594 45.2341 44.0222 46.7305 45.6493 37.2263 47.0116 37.1114 47.003 35.7451 35.4005 46.3733 35.8284 47.0392 35.5508 46.233 34.7681 53.0329 52.9731 47.0602 54.1066 46.8457 46.9612 47.6517 35.6975 47.2654 48.3353 48.9283 48.9756 50.5527 49.8176 36.6932 36.7329 37.2197 48.9501 48.7701 49.8142 50.1581 51.101 50.6001 52.927 50.996 51.3611 52.7077 51.2493 39.9413 39.784 54.0345 39.4462 53.6287 56.3322 42.9354 60.3051 59.9222 43.0453 56.2302 54.5576 42.8613 56.906 56.874 59.4477 56.3862 56.5314 58.4485 58.8108 59.7398 46.0413 59.4365 59.7035 45.2158 61.8134 61.3873 68.0812 67.6463 67.2902 64.0573 65.9445 69.6161 68.4361 50.9183 67.3632 78.375 79.8379 100.8141 99.0973 77.0396 80.4482 137.2718 136.2905 139.6998 124.1956 
PEPMASS=1127.0825
CHARGE=2+
56.0604 352
57.0449 221
70.0781 331
72.095 412
84.0601 351
84.095 685
86.1131 298
88.0549 145
101.0885 334
104.0895 807
110.0916 146
119.0721 214
120.1019 2223
121.1074 207
122.1029 1708
129.126 387
130.1113 390
136.1006 2141
137.1056 298
141.091 374
147.1419 240
157.127 197
171.1454 176
171.1822 160
172.0051 313
192.1366 137
193.137 203
200.139 258
202.0208 779
204.0341 177
205.1378 283
212.1411 435
213.1347 216
216.0421 378
219.155 141
221.1297 327
235.1546 535
239.1574 193
256.2135 187
260.2465 761
264.1852 165
288.1891 432
295.1989 123
306.2016 285
328.2268 130
331.2379 149
336.1813 1747
337.1858 332
355.269 411
359.2378 228
362.2022 373
372.2586 111
377.2193 206
381.2153 218
383.2641 379
392.2225 234
399.271 137
403.2343 175
407.2428 229
407.3429 1766
408.3483 497
411.2768 148
421.2568 177
426.3256 289
429.2948 244
430.2914 274
432.2775 142
436.3067 146
438.2553 191
446.2986 147
448.3013 308
454.3192 1132
455.2984 380
456.318 163
460.2723 451
464.2798 166
466.1243 347
466.3183 340
474.2891 238
478.2813 358
483.2768 156
486.3005 251
492.2995 143
494.3187 406
495.295 208
499.0564 348
500.3415 136
501.0552 130
502.0988 211
504.1026 187
506.4343 477
509.3079 279
511.3599 150
512.3352 216
513.3058 199
516.4153 129
522.3339 184
525.4062 450
531.3231 524
532.3268 175
539.3643 152
540.324 468
541.3337 177
545.3425 108
547.3304 160
549.335 439
550.332 147
553.4018 1492
554.4096 439
555.416 141
556.0934 3853
557.0999 1098
557.3781 201
558.0945 1202
558.3717 176
559.0979 218
560.0864 315
563.3498 116
563.4636 2644
564.465 866
565.3711 756
565.4635 174
566.3454 297
575.1789 249
576.3836 207
577.3672 115
578.3399 251
582.397 261
583.4126 124
592.0864 401
592.3949 172
593.0831 121
593.412 163
594.3991 160
595.378 144
596.3535 239
602.3773 300
603.3875 167
605.3702 142
610.4423 222
613.1271 4000
613.3822 247
614.1326 965
614.3896 128
615.1293 897
616.1319 169
617.1178 209
618.376 131
620.3893 410
621.3932 204
622.4 265
623.3679 677
624.3687 247
624.4963 142
637.4034 119
639.4219 118
641.3819 559
642.3864 151
649.1119 1180
649.3858 409
650.122 296
650.3865 230
651.0871 3154
652.0858 653
652.4923 736
653.0852 721
653.4961 270
654.0822 134
654.4781 136
655.0727 221
662.5518 1768
663.5513 817
664.4574 306
664.5611 243
665.4634 170
666.4169 210
667.4102 312
667.9951 131
668.4109 205
676.4203 253
681.4952 312
682.4919 137
684.4272 228
685.4455 107
689.0441 1505
691.0464 426
692.044 108
692.4708 111
693.4498 279
694.4207 787
695.4175 375
709.5248 537
710.5009 358
711.5189 155
712.4304 757
713.442 290
720.4439 134
721.4517 116
725.0287 354
727.0194 203
738.444 134
741.9203 274
748.4577 122
755.4897 149
761.0163 377
761.6341 696
762.6427 360
762.9998 343
763.5451 122
764.497 125
765.0164 113
765.4749 538
766.4753 280
780.5853 233
781.5621 164
782.5184 114
783.4913 388
784.4895 300
792.5252 104
798.9741 111
800.5041 266
801.503 122
803.1152 132
808.6083 490
809.5935 256
832.6847 640
833.6831 315
834.6946 139
837.6118 103
893.554 180
911.5595 314
912.5666 176
924.9278 107
928.593 184
955.7039 210
956.7074 148
1002.8201 363
1003.8254 245
1022.6265 177
1039.6755 262
1214.9375 987
1215.9451 855
1216.9496 314
1325.9998 290
END IONS
